time [s]	P_1 [mW]	E_1 [J]	P_2 [mW]	E_2 [J]	P_3 [mW]	E_3 [J]	P_4 [mW]	E_4 [J]	P_5 [mW]	E_5 [J]	P_6 [mW]	E_6 [J]
534.7827	0.0000	0.0000	0.0000	0.0000	0.0000	0.0000	0.0000	0.0000	0.0000	0.0000	0.0000	0.0000
534.8162	0.0000	0.0000	0.0000	0.0000	0.0000	0.0000	0.0000	0.0000	0.0000	0.0000	0.0000	0.0000
534.8491	0.0000	0.0000	0.0000	0.0000	0.0000	0.0000	0.0000	0.0000	0.0000	0.0000	0.0000	0.0000
534.8821	0.0000	0.0000	0.0000	0.0000	0.0000	0.0000	0.0000	0.0000	0.0000	0.0000	0.0000	0.0000
534.9155	0.0000	0.0000	0.0000	0.0000	0.0000	0.0000	0.0000	0.0000	0.0000	0.0000	0.0000	0.0000
534.9485	0.0000	0.0000	0.0000	0.0000	0.0000	0.0000	0.0000	0.0000	0.0000	0.0000	0.0000	0.0000
534.9814	0.0000	0.0000	0.0000	0.0000	0.0000	0.0000	0.0000	0.0000	0.0000	0.0000	0.0000	0.0000
535.0149	0.0000	0.0000	0.0000	0.0000	0.0000	0.0000	0.0000	0.0000	0.0000	0.0000	0.0000	0.0000
535.0479	0.0000	0.0000	0.0000	0.0000	0.0000	0.0000	0.0000	0.0000	0.0000	0.0000	0.0000	0.0000
535.0808	0.0000	0.0000	0.0000	0.0000	0.0000	0.0000	0.0000	0.0000	0.0000	0.0000	0.0000	0.0000
535.1143	0.0000	0.0000	0.0000	0.0000	0.0000	0.0000	0.0000	0.0000	0.0000	0.0000	0.0000	0.0000
535.1473	0.0000	0.0000	0.0000	0.0000	0.0000	0.0000	0.0000	0.0000	0.0000	0.0000	0.0000	0.0000
535.1803	0.0000	0.0000	0.0000	0.0000	0.0000	0.0000	0.0000	0.0000	0.0000	0.0000	0.0000	0.0000
535.2137	0.0000	0.0000	0.0000	0.0000	0.0000	0.0000	0.0000	0.0000	0.0000	0.0000	0.0000	0.0000
535.2467	0.0000	0.0000	0.0000	0.0000	0.0000	0.0000	0.0000	0.0000	0.0000	0.0000	0.0000	0.0000
535.2796	0.0000	0.0000	0.0000	0.0000	0.0000	0.0000	0.0000	0.0000	0.0000	0.0000	0.0000	0.0000
535.3131	0.0000	0.0000	0.0000	0.0000	0.0000	0.0000	0.0000	0.0000	0.0000	0.0000	0.0000	0.0000
535.3460	0.0000	0.0000	0.0000	0.0000	0.0000	0.0000	0.0000	0.0000	0.0000	0.0000	0.0000	0.0000
535.3794	0.0000	0.0000	0.0000	0.0000	0.0000	0.0000	0.0000	0.0000	0.0000	0.0000	0.0000	0.0000
535.4123	0.0000	0.0000	0.0000	0.0000	0.0000	0.0000	0.0000	0.0000	0.0000	0.0000	0.0000	0.0000
535.4453	0.0000	0.0000	0.0000	0.0000	0.0000	0.0000	0.0000	0.0000	0.0000	0.0000	0.0000	0.0000
535.4787	0.0000	0.0000	0.0000	0.0000	0.0000	0.0000	0.0000	0.0000	0.0000	0.0000	0.0000	0.0000
535.5117	0.0000	0.0000	0.0000	0.0000	0.0000	0.0000	0.0000	0.0000	0.0000	0.0000	0.0000	0.0000
535.5451	0.0000	0.0000	0.0000	0.0000	0.0000	0.0000	0.0000	0.0000	0.0000	0.0000	0.0000	0.0000
535.5781	0.0000	0.0000	0.0000	0.0000	0.0000	0.0000	0.0000	0.0000	0.0000	0.0000	0.0000	0.0000
535.6110	0.0000	0.0000	0.0000	0.0000	0.0000	0.0000	0.0000	0.0000	0.0000	0.0000	0.0000	0.0000
535.6444	0.0000	0.0000	0.0000	0.0000	0.0000	0.0000	0.0000	0.0000	0.0000	0.0000	0.0000	0.0000
535.6774	0.0000	0.0000	0.0000	0.0000	0.0000	0.0000	0.0000	0.0000	0.0000	0.0000	0.0000	0.0000
535.7103	0.0000	0.0000	0.0000	0.0000	0.0000	0.0000	0.0000	0.0000	0.0000	0.0000	0.0000	0.0000
535.7438	0.0000	0.0000	0.0000	0.0000	0.0000	0.0000	0.0000	0.0000	0.0000	0.0000	0.0000	0.0000
535.7768	0.0000	0.0000	0.0000	0.0000	0.0000	0.0000	0.0000	0.0000	0.0000	0.0000	0.0000	0.0000
535.8102	0.0000	0.0000	0.0000	0.0000	0.0000	0.0000	0.0000	0.0000	0.0000	0.0000	0.0000	0.0000
535.8431	0.0000	0.0000	0.0000	0.0000	0.0000	0.0000	0.0000	0.0000	0.0000	0.0000	0.0000	0.0000
535.8761	0.0000	0.0000	0.0000	0.0000	0.0000	0.0000	0.0000	0.0000	0.0000	0.0000	0.0000	0.0000
535.9095	0.0000	0.0000	0.0000	0.0000	0.0000	0.0000	0.0000	0.0000	0.0000	0.0000	0.0000	0.0000
535.9425	0.0000	0.0000	0.0000	0.0000	0.0000	0.0000	0.0000	0.0000	0.0000	0.0000	0.0000	0.0000
535.9754	0.0000	0.0000	0.0000	0.0000	0.0000	0.0000	0.0000	0.0000	0.0000	0.0000	0.0000	0.0000
536.0089	0.0000	0.0000	0.0000	0.0000	0.0000	0.0000	0.0000	0.0000	0.0000	0.0000	0.0000	0.0000
536.0418	0.0000	0.0000	0.0000	0.0000	0.0000	0.0000	0.0000	0.0000	0.0000	0.0000	0.0000	0.0000
536.0753	0.0000	0.0000	0.0000	0.0000	0.0000	0.0000	0.0000	0.0000	0.0000	0.0000	0.0000	0.0000
536.1082	0.0000	0.0000	0.0000	0.0000	0.0000	0.0000	0.0000	0.0000	0.0000	0.0000	0.0000	0.0000
536.1411	0.0000	0.0000	0.0000	0.0000	0.0000	0.0000	0.0000	0.0000	0.0000	0.0000	0.0000	0.0000
536.1746	0.0000	0.0000	0.0000	0.0000	0.0000	0.0000	0.0000	0.0000	0.0000	0.0000	0.0000	0.0000
536.2076	0.0000	0.0000	0.0000	0.0000	0.0000	0.0000	0.0000	0.0000	0.0000	0.0000	0.0000	0.0000
536.2405	0.0000	0.0000	0.0000	0.0000	0.0000	0.0000	0.0000	0.0000	0.0000	0.0000	0.0000	0.0000
536.2740	0.0000	0.0000	0.0000	0.0000	0.0000	0.0000	0.0000	0.0000	0.0000	0.0000	0.0000	0.0000
536.3069	0.0000	0.0000	0.0000	0.0000	0.0000	0.0000	0.0000	0.0000	0.0000	0.0000	0.0000	0.0000
536.3399	0.0000	0.0000	0.0000	0.0000	0.0000	0.0000	0.0000	0.0000	0.0000	0.0000	0.0000	0.0000
536.3733	0.0000	0.0000	0.0000	0.0000	0.0000	0.0000	0.0000	0.0000	0.0000	0.0000	0.0000	0.0000
536.4063	0.0000	0.0000	0.0000	0.0000	0.0000	0.0000	0.0000	0.0000	0.0000	0.0000	0.0000	0.0000
536.4397	0.0000	0.0000	0.0000	0.0000	0.0000	0.0000	0.0000	0.0000	0.0000	0.0000	0.0000	0.0000
536.4726	0.0000	0.0000	0.0000	0.0000	0.0000	0.0000	0.0000	0.0000	0.0000	0.0000	0.0000	0.0000
536.5056	0.0000	0.0000	0.0000	0.0000	0.0000	0.0000	0.0000	0.0000	0.0000	0.0000	0.0000	0.0000
536.5391	0.0000	0.0000	0.0000	0.0000	0.0000	0.0000	0.0000	0.0000	0.0000	0.0000	0.0000	0.0000
536.5721	0.0000	0.0000	0.0000	0.0000	0.0000	0.0000	0.0000	0.0000	0.0000	0.0000	0.0000	0.0000
536.6050	0.0000	0.0000	0.0000	0.0000	0.0000	0.0000	0.0000	0.0000	0.0000	0.0000	0.0000	0.0000
536.6385	0.0000	0.0000	0.0000	0.0000	0.0000	0.0000	0.0000	0.0000	0.0000	0.0000	0.0000	0.0000
536.6714	0.0000	0.0000	0.0000	0.0000	0.0000	0.0000	0.0000	0.0000	0.0000	0.0000	0.0000	0.0000
536.7049	0.0000	0.0000	0.0000	0.0000	0.0000	0.0000	0.0000	0.0000	0.0000	0.0000	0.0000	0.0000
536.7378	0.0000	0.0000	0.0000	0.0000	0.0000	0.0000	0.0000	0.0000	0.0000	0.0000	0.0000	0.0000
536.7708	0.0000	0.0000	0.0000	0.0000	0.0000	0.0000	0.0000	0.0000	0.0000	0.0000	0.0000	0.0000
536.8038	0.0000	0.0000	0.0000	0.0000	0.0000	0.0000	0.0000	0.0000	0.0000	0.0000	0.0000	0.0000
536.8373	0.0000	0.0000	0.0000	0.0000	0.0000	0.0000	0.0000	0.0000	0.0000	0.0000	0.0000	0.0000
536.8702	0.0000	0.0000	0.0000	0.0000	0.0000	0.0000	0.0000	0.0000	0.0000	0.0000	0.0000	0.0000
536.9036	0.0000	0.0000	0.0000	0.0000	0.0000	0.0000	0.0000	0.0000	0.0000	0.0000	0.0000	0.0000
536.9366	0.0000	0.0000	0.0000	0.0000	0.0000	0.0000	0.0000	0.0000	0.0000	0.0000	0.0000	0.0000
536.9696	0.0000	0.0000	0.0000	0.0000	0.0000	0.0000	0.0000	0.0000	0.0000	0.0000	0.0000	0.0000
537.0026	0.0000	0.0000	0.0000	0.0000	0.0000	0.0000	0.0000	0.0000	0.0000	0.0000	0.0000	0.0000
537.0360	0.0000	0.0000	0.0000	0.0000	0.0000	0.0000	0.0000	0.0000	0.0000	0.0000	0.0000	0.0000
537.0690	0.0000	0.0000	0.0000	0.0000	0.0000	0.0000	0.0000	0.0000	0.0000	0.0000	0.0000	0.0000
537.1020	0.0000	0.0000	0.0000	0.0000	0.0000	0.0000	0.0000	0.0000	0.0000	0.0000	0.0000	0.0000
537.1354	0.0000	0.0000	0.0000	0.0000	0.0000	0.0000	0.0000	0.0000	0.0000	0.0000	0.0000	0.0000
537.1683	0.0000	0.0000	0.0000	0.0000	0.0000	0.0000	0.0000	0.0000	0.0000	0.0000	0.0000	0.0000
537.2018	0.0000	0.0000	0.0000	0.0000	0.0000	0.0000	0.0000	0.0000	0.0000	0.0000	0.0000	0.0000
537.2347	0.0000	0.0000	0.0000	0.0000	0.0000	0.0000	0.0000	0.0000	0.0000	0.0000	0.0000	0.0000
537.2676	0.0000	0.0000	0.0000	0.0000	0.0000	0.0000	0.0000	0.0000	0.0000	0.0000	0.0000	0.0000
537.3011	0.0000	0.0000	0.0000	0.0000	0.0000	0.0000	0.0000	0.0000	0.0000	0.0000	0.0000	0.0000
537.3341	0.0000	0.0000	0.0000	0.0000	0.0000	0.0000	0.0000	0.0000	0.0000	0.0000	0.0000	0.0000
537.3675	0.0000	0.0000	0.0000	0.0000	0.0000	0.0000	0.0000	0.0000	0.0000	0.0000	0.0000	0.0000
537.4004	0.0000	0.0000	0.0000	0.0000	0.0000	0.0000	0.0000	0.0000	0.0000	0.0000	0.0000	0.0000
537.4334	0.0000	0.0000	0.0000	0.0000	0.0000	0.0000	0.0000	0.0000	0.0000	0.0000	0.0000	0.0000
537.4668	0.0000	0.0000	0.0000	0.0000	0.0000	0.0000	0.0000	0.0000	0.0000	0.0000	0.0000	0.0000
537.4997	0.0000	0.0000	0.0000	0.0000	0.0000	0.0000	0.0000	0.0000	0.0000	0.0000	0.0000	0.0000
537.5331	0.0000	0.0000	0.0000	0.0000	0.0000	0.0000	0.0000	0.0000	0.0000	0.0000	0.0000	0.0000
537.5661	0.0000	0.0000	0.0000	0.0000	0.0000	0.0000	0.0000	0.0000	0.0000	0.0000	0.0000	0.0000
537.5991	0.0000	0.0000	0.0000	0.0000	0.0000	0.0000	0.0000	0.0000	0.0000	0.0000	0.0000	0.0000
537.6326	0.0000	0.0000	0.0000	0.0000	0.0000	0.0000	0.0000	0.0000	0.0000	0.0000	0.0000	0.0000
537.6655	0.0000	0.0000	0.0000	0.0000	0.0000	0.0000	0.0000	0.0000	0.0000	0.0000	0.0000	0.0000
537.6989	0.0000	0.0000	0.0000	0.0000	0.0000	0.0000	0.0000	0.0000	0.0000	0.0000	0.0000	0.0000
537.7318	0.0000	0.0000	0.0000	0.0000	0.0000	0.0000	0.0000	0.0000	0.0000	0.0000	0.0000	0.0000
537.7648	0.0000	0.0000	0.0000	0.0000	0.0000	0.0000	0.0000	0.0000	0.0000	0.0000	0.0000	0.0000
537.7983	0.0000	0.0000	0.0000	0.0000	0.0000	0.0000	0.0000	0.0000	0.0000	0.0000	0.0000	0.0000
537.8312	0.0000	0.0000	0.0000	0.0000	0.0000	0.0000	0.0000	0.0000	0.0000	0.0000	0.0000	0.0000
537.8642	0.0000	0.0000	0.0000	0.0000	0.0000	0.0000	0.0000	0.0000	0.0000	0.0000	0.0000	0.0000
537.8976	0.0000	0.0000	0.0000	0.0000	0.0000	0.0000	0.0000	0.0000	0.0000	0.0000	0.0000	0.0000
537.9306	0.0000	0.0000	0.0000	0.0000	0.0000	0.0000	0.0000	0.0000	0.0000	0.0000	0.0000	0.0000
537.9635	0.0000	0.0000	0.0000	0.0000	0.0000	0.0000	0.0000	0.0000	0.0000	0.0000	0.0000	0.0000
537.9970	0.0000	0.0000	0.0000	0.0000	0.0000	0.0000	0.0000	0.0000	0.0000	0.0000	0.0000	0.0000
538.0299	0.0000	0.0000	0.0000	0.0000	0.0000	0.0000	0.0000	0.0000	0.0000	0.0000	0.0000	0.0000
538.0629	0.0000	0.0000	0.0000	0.0000	0.0000	0.0000	0.0000	0.0000	0.0000	0.0000	0.0000	0.0000
538.0964	0.0000	0.0000	0.0000	0.0000	0.0000	0.0000	0.0000	0.0000	0.0000	0.0000	0.0000	0.0000
538.1293	0.0000	0.0000	0.0000	0.0000	0.0000	0.0000	0.0000	0.0000	0.0000	0.0000	0.0000	0.0000
538.1627	0.0000	0.0000	0.0000	0.0000	0.0000	0.0000	0.0000	0.0000	0.0000	0.0000	0.0000	0.0000
538.1957	0.0000	0.0000	0.0000	0.0000	0.0000	0.0000	0.0000	0.0000	0.0000	0.0000	0.0000	0.0000
538.2286	0.0000	0.0000	0.0000	0.0000	0.0000	0.0000	0.0000	0.0000	0.0000	0.0000	0.0000	0.0000
538.2621	0.0000	0.0000	0.0000	0.0000	0.0000	0.0000	0.0000	0.0000	0.0000	0.0000	0.0000	0.0000
538.2951	0.0000	0.0000	0.0000	0.0000	0.0000	0.0000	0.0000	0.0000	0.0000	0.0000	0.0000	0.0000
538.3281	0.0000	0.0000	0.0000	0.0000	0.0000	0.0000	0.0000	0.0000	0.0000	0.0000	0.0000	0.0000
538.3615	0.0000	0.0000	0.0000	0.0000	0.0000	0.0000	0.0000	0.0000	0.0000	0.0000	0.0000	0.0000
538.3945	0.0000	0.0000	0.0000	0.0000	0.0000	0.0000	0.0000	0.0000	0.0000	0.0000	0.0000	0.0000
538.4279	0.0000	0.0000	0.0000	0.0000	0.0000	0.0000	0.0000	0.0000	0.0000	0.0000	0.0000	0.0000
538.4609	0.0000	0.0000	0.0000	0.0000	0.0000	0.0000	0.0000	0.0000	0.0000	0.0000	0.0000	0.0000
538.4939	0.0000	0.0000	0.0000	0.0000	0.0000	0.0000	0.0000	0.0000	0.0000	0.0000	0.0000	0.0000
538.5273	0.0000	0.0000	0.0000	0.0000	0.0000	0.0000	0.0000	0.0000	0.0000	0.0000	0.0000	0.0000
538.5603	0.0000	0.0000	0.0000	0.0000	0.0000	0.0000	0.0000	0.0000	0.0000	0.0000	0.0000	0.0000
538.5932	0.0000	0.0000	0.0000	0.0000	0.0000	0.0000	0.0000	0.0000	0.0000	0.0000	0.0000	0.0000
538.6267	0.0000	0.0000	0.0000	0.0000	0.0000	0.0000	0.0000	0.0000	0.0000	0.0000	0.0000	0.0000
538.6596	0.0000	0.0000	0.0000	0.0000	0.0000	0.0000	0.0000	0.0000	0.0000	0.0000	0.0000	0.0000
538.6926	0.0000	0.0000	0.0000	0.0000	0.0000	0.0000	0.0000	0.0000	0.0000	0.0000	0.0000	0.0000
538.7260	0.0000	0.0000	0.0000	0.0000	0.0000	0.0000	0.0000	0.0000	0.0000	0.0000	0.0000	0.0000
538.7590	0.0000	0.0000	0.0000	0.0000	0.0000	0.0000	0.0000	0.0000	0.0000	0.0000	0.0000	0.0000
538.7924	0.0000	0.0000	0.0000	0.0000	0.0000	0.0000	0.0000	0.0000	0.0000	0.0000	0.0000	0.0000
538.8254	0.0000	0.0000	0.0000	0.0000	0.0000	0.0000	0.0000	0.0000	0.0000	0.0000	0.0000	0.0000
538.8584	0.0000	0.0000	0.0000	0.0000	0.0000	0.0000	0.0000	0.0000	0.0000	0.0000	0.0000	0.0000
538.8914	0.0000	0.0000	0.0000	0.0000	0.0000	0.0000	0.0000	0.0000	0.0000	0.0000	0.0000	0.0000
538.9248	0.0000	0.0000	0.0000	0.0000	0.0000	0.0000	0.0000	0.0000	0.0000	0.0000	0.0000	0.0000
538.9577	0.0000	0.0000	0.0000	0.0000	0.0000	0.0000	0.0000	0.0000	0.0000	0.0000	0.0000	0.0000
538.9912	0.0000	0.0000	0.0000	0.0000	0.0000	0.0000	0.0000	0.0000	0.0000	0.0000	0.0000	0.0000
539.0242	0.0000	0.0000	0.0000	0.0000	0.0000	0.0000	0.0000	0.0000	0.0000	0.0000	0.0000	0.0000
539.0571	0.0000	0.0000	0.0000	0.0000	0.0000	0.0000	0.0000	0.0000	0.0000	0.0000	0.0000	0.0000
539.0906	0.0000	0.0000	0.0000	0.0000	0.0000	0.0000	0.0000	0.0000	0.0000	0.0000	0.0000	0.0000
539.1235	0.0000	0.0000	0.0000	0.0000	0.0000	0.0000	0.0000	0.0000	0.0000	0.0000	0.0000	0.0000
539.1565	0.0000	0.0000	0.0000	0.0000	0.0000	0.0000	0.0000	0.0000	0.0000	0.0000	0.0000	0.0000
539.1899	0.0000	0.0000	0.0000	0.0000	0.0000	0.0000	0.0000	0.0000	0.0000	0.0000	0.0000	0.0000
539.2229	0.0000	0.0000	0.0000	0.0000	0.0000	0.0000	0.0000	0.0000	0.0000	0.0000	0.0000	0.0000
539.2559	0.0000	0.0000	0.0000	0.0000	0.0000	0.0000	0.0000	0.0000	0.0000	0.0000	0.0000	0.0000
539.2894	0.0000	0.0000	0.0000	0.0000	0.0000	0.0000	0.0000	0.0000	0.0000	0.0000	0.0000	0.0000
539.3223	0.0000	0.0000	0.0000	0.0000	0.0000	0.0000	0.0000	0.0000	0.0000	0.0000	0.0000	0.0000
539.3553	0.0000	0.0000	0.0000	0.0000	0.0000	0.0000	0.0000	0.0000	0.0000	0.0000	0.0000	0.0000
539.3888	0.0000	0.0000	0.0000	0.0000	0.0000	0.0000	0.0000	0.0000	0.0000	0.0000	0.0000	0.0000
539.4218	0.0000	0.0000	0.0000	0.0000	0.0000	0.0000	0.0000	0.0000	0.0000	0.0000	0.0000	0.0000
539.4547	0.0000	0.0000	0.0000	0.0000	0.0000	0.0000	0.0000	0.0000	0.0000	0.0000	0.0000	0.0000
539.4881	0.0000	0.0000	0.0000	0.0000	0.0000	0.0000	0.0000	0.0000	0.0000	0.0000	0.0000	0.0000
539.5211	0.0000	0.0000	0.0000	0.0000	0.0000	0.0000	0.0000	0.0000	0.0000	0.0000	0.0000	0.0000
539.5546	0.0000	0.0000	0.0000	0.0000	0.0000	0.0000	0.0000	0.0000	0.0000	0.0000	0.0000	0.0000
539.5875	0.0000	0.0000	0.0000	0.0000	0.0000	0.0000	0.0000	0.0000	0.0000	0.0000	0.0000	0.0000
539.6205	0.0000	0.0000	0.0000	0.0000	0.0000	0.0000	0.0000	0.0000	0.0000	0.0000	0.0000	0.0000
539.6539	0.0000	0.0000	0.0000	0.0000	0.0000	0.0000	0.0000	0.0000	0.0000	0.0000	0.0000	0.0000
539.6869	0.0000	0.0000	0.0000	0.0000	0.0000	0.0000	0.0000	0.0000	0.0000	0.0000	0.0000	0.0000
539.7198	0.0000	0.0000	0.0000	0.0000	0.0000	0.0000	0.0000	0.0000	0.0000	0.0000	0.0000	0.0000
539.7533	0.0000	0.0000	0.0000	0.0000	0.0000	0.0000	0.0000	0.0000	0.0000	0.0000	0.0000	0.0000
539.7862	0.0000	0.0000	0.0000	0.0000	0.0000	0.0000	0.0000	0.0000	0.0000	0.0000	0.0000	0.0000
539.8196	0.0000	0.0000	0.0000	0.0000	0.0000	0.0000	0.0000	0.0000	0.0000	0.0000	0.0000	0.0000
539.8525	0.0000	0.0000	0.0000	0.0000	0.0000	0.0000	0.0000	0.0000	0.0000	0.0000	0.0000	0.0000
539.8855	0.0000	0.0000	0.0000	0.0000	0.0000	0.0000	0.0000	0.0000	0.0000	0.0000	0.0000	0.0000
539.9190	0.0000	0.0000	0.0000	0.0000	0.0000	0.0000	0.0000	0.0000	0.0000	0.0000	0.0000	0.0000
539.9519	0.0000	0.0000	0.0000	0.0000	0.0000	0.0000	0.0000	0.0000	0.0000	0.0000	0.0000	0.0000
539.9853	0.0000	0.0000	0.0000	0.0000	0.0000	0.0000	0.0000	0.0000	0.0000	0.0000	0.0000	0.0000
540.0183	0.0000	0.0000	0.0000	0.0000	0.0000	0.0000	0.0000	0.0000	0.0000	0.0000	0.0000	0.0000
540.0512	0.0000	0.0000	0.0000	0.0000	0.0000	0.0000	0.0000	0.0000	0.0000	0.0000	0.0000	0.0000
540.0847	0.0000	0.0000	0.0000	0.0000	0.0000	0.0000	0.0000	0.0000	0.0000	0.0000	0.0000	0.0000
540.1176	0.0000	0.0000	0.0000	0.0000	0.0000	0.0000	0.0000	0.0000	0.0000	0.0000	0.0000	0.0000
540.1511	0.0000	0.0000	0.0000	0.0000	0.0000	0.0000	0.0000	0.0000	0.0000	0.0000	0.0000	0.0000
540.1841	0.0000	0.0000	0.0000	0.0000	0.0000	0.0000	0.0000	0.0000	0.0000	0.0000	0.0000	0.0000
540.2170	0.0000	0.0000	0.0000	0.0000	0.0000	0.0000	0.0000	0.0000	0.0000	0.0000	0.0000	0.0000
540.2504	0.0000	0.0000	0.0000	0.0000	0.0000	0.0000	0.0000	0.0000	0.0000	0.0000	0.0000	0.0000
540.2834	0.0000	0.0000	0.0000	0.0000	0.0000	0.0000	0.0000	0.0000	0.0000	0.0000	0.0000	0.0000
540.3164	0.0000	0.0000	0.0000	0.0000	0.0000	0.0000	0.0000	0.0000	0.0000	0.0000	0.0000	0.0000
540.3498	0.0000	0.0000	0.0000	0.0000	0.0000	0.0000	0.0000	0.0000	0.0000	0.0000	0.0000	0.0000
540.3828	0.0000	0.0000	0.0000	0.0000	0.0000	0.0000	0.0000	0.0000	0.0000	0.0000	0.0000	0.0000
540.4162	0.0000	0.0000	0.0000	0.0000	0.0000	0.0000	0.0000	0.0000	0.0000	0.0000	0.0000	0.0000
540.4491	0.0000	0.0000	0.0000	0.0000	0.0000	0.0000	0.0000	0.0000	0.0000	0.0000	0.0000	0.0000
540.4821	0.0000	0.0000	0.0000	0.0000	0.0000	0.0000	0.0000	0.0000	0.0000	0.0000	0.0000	0.0000
540.5155	0.0000	0.0000	0.0000	0.0000	0.0000	0.0000	0.0000	0.0000	0.0000	0.0000	0.0000	0.0000
540.5485	0.0000	0.0000	0.0000	0.0000	0.0000	0.0000	0.0000	0.0000	0.0000	0.0000	0.0000	0.0000
540.5814	0.0000	0.0000	0.0000	0.0000	0.0000	0.0000	0.0000	0.0000	0.0000	0.0000	0.0000	0.0000
540.6148	0.0000	0.0000	0.0000	0.0000	0.0000	0.0000	0.0000	0.0000	0.0000	0.0000	0.0000	0.0000
540.6478	0.0000	0.0000	0.0000	0.0000	0.0000	0.0000	0.0000	0.0000	0.0000	0.0000	0.0000	0.0000
540.6813	0.0000	0.0000	0.0000	0.0000	0.0000	0.0000	0.0000	0.0000	0.0000	0.0000	0.0000	0.0000
540.7142	0.0000	0.0000	0.0000	0.0000	0.0000	0.0000	0.0000	0.0000	0.0000	0.0000	0.0000	0.0000
540.7471	0.0000	0.0000	0.0000	0.0000	0.0000	0.0000	0.0000	0.0000	0.0000	0.0000	0.0000	0.0000
540.7806	0.0000	0.0000	0.0000	0.0000	0.0000	0.0000	0.0000	0.0000	0.0000	0.0000	0.0000	0.0000
540.8135	0.0000	0.0000	0.0000	0.0000	0.0000	0.0000	0.0000	0.0000	0.0000	0.0000	0.0000	0.0000
540.8469	0.0000	0.0000	0.0000	0.0000	0.0000	0.0000	0.0000	0.0000	0.0000	0.0000	0.0000	0.0000
540.8799	0.0000	0.0000	0.0000	0.0000	0.0000	0.0000	0.0000	0.0000	0.0000	0.0000	0.0000	0.0000
540.9128	0.0000	0.0000	0.0000	0.0000	0.0000	0.0000	0.0000	0.0000	0.0000	0.0000	0.0000	0.0000
540.9463	0.0000	0.0000	0.0000	0.0000	0.0000	0.0000	0.0000	0.0000	0.0000	0.0000	0.0000	0.0000
540.9792	0.0000	0.0000	0.0000	0.0000	0.0000	0.0000	0.0000	0.0000	0.0000	0.0000	0.0000	0.0000
541.0126	0.0000	0.0000	0.0000	0.0000	0.0000	0.0000	0.0000	0.0000	0.0000	0.0000	0.0000	0.0000
541.0456	0.0000	0.0000	0.0000	0.0000	0.0000	0.0000	0.0000	0.0000	0.0000	0.0000	0.0000	0.0000
541.0785	0.0000	0.0000	0.0000	0.0000	0.0000	0.0000	0.0000	0.0000	0.0000	0.0000	0.0000	0.0000
541.1120	0.0000	0.0000	0.0000	0.0000	0.0000	0.0000	0.0000	0.0000	0.0000	0.0000	0.0000	0.0000
541.1449	0.0000	0.0000	0.0000	0.0000	0.0000	0.0000	0.0000	0.0000	0.0000	0.0000	0.0000	0.0000
541.1779	0.0000	0.0000	0.0000	0.0000	0.0000	0.0000	0.0000	0.0000	0.0000	0.0000	0.0000	0.0000
541.2113	0.0000	0.0000	0.0000	0.0000	0.0000	0.0000	0.0000	0.0000	0.0000	0.0000	0.0000	0.0000
541.2443	0.0000	0.0000	0.0000	0.0000	0.0000	0.0000	0.0000	0.0000	0.0000	0.0000	0.0000	0.0000
541.2778	0.0000	0.0000	0.0000	0.0000	0.0000	0.0000	0.0000	0.0000	0.0000	0.0000	0.0000	0.0000
541.3107	0.0000	0.0000	0.0000	0.0000	0.0000	0.0000	0.0000	0.0000	0.0000	0.0000	0.0000	0.0000
541.3437	0.0000	0.0000	0.0000	0.0000	0.0000	0.0000	0.0000	0.0000	0.0000	0.0000	0.0000	0.0000
541.3771	0.0000	0.0000	0.0000	0.0000	0.0000	0.0000	0.0000	0.0000	0.0000	0.0000	0.0000	0.0000
541.4100	0.0000	0.0000	0.0000	0.0000	0.0000	0.0000	0.0000	0.0000	0.0000	0.0000	0.0000	0.0000
541.4435	0.0000	0.0000	0.0000	0.0000	0.0000	0.0000	0.0000	0.0000	0.0000	0.0000	0.0000	0.0000
541.4764	0.0000	0.0000	0.0000	0.0000	0.0000	0.0000	0.0000	0.0000	0.0000	0.0000	0.0000	0.0000
541.5094	0.0000	0.0000	0.0000	0.0000	0.0000	0.0000	0.0000	0.0000	0.0000	0.0000	0.0000	0.0000
541.5428	0.0000	0.0000	0.0000	0.0000	0.0000	0.0000	0.0000	0.0000	0.0000	0.0000	0.0000	0.0000
541.5758	0.0000	0.0000	0.0000	0.0000	0.0000	0.0000	0.0000	0.0000	0.0000	0.0000	0.0000	0.0000
541.6088	0.0000	0.0000	0.0000	0.0000	0.0000	0.0000	0.0000	0.0000	0.0000	0.0000	0.0000	0.0000
541.6423	0.0000	0.0000	0.0000	0.0000	0.0000	0.0000	0.0000	0.0000	0.0000	0.0000	0.0000	0.0000
541.6752	0.0000	0.0000	0.0000	0.0000	0.0000	0.0000	0.0000	0.0000	0.0000	0.0000	0.0000	0.0000
541.7081	0.0000	0.0000	0.0000	0.0000	0.0000	0.0000	0.0000	0.0000	0.0000	0.0000	0.0000	0.0000
541.7416	0.0000	0.0000	0.0000	0.0000	0.0000	0.0000	0.0000	0.0000	0.0000	0.0000	0.0000	0.0000
541.7746	0.0000	0.0000	0.0000	0.0000	0.0000	0.0000	0.0000	0.0000	0.0000	0.0000	0.0000	0.0000
541.8075	0.0000	0.0000	0.0000	0.0000	0.0000	0.0000	0.0000	0.0000	0.0000	0.0000	0.0000	0.0000
541.8410	0.0000	0.0000	0.0000	0.0000	0.0000	0.0000	0.0000	0.0000	0.0000	0.0000	0.0000	0.0000
541.8740	0.0000	0.0000	0.0000	0.0000	0.0000	0.0000	0.0000	0.0000	0.0000	0.0000	0.0000	0.0000
541.9070	0.0000	0.0000	0.0000	0.0000	0.0000	0.0000	0.0000	0.0000	0.0000	0.0000	0.0000	0.0000
541.9405	0.0000	0.0000	0.0000	0.0000	0.0000	0.0000	0.0000	0.0000	0.0000	0.0000	0.0000	0.0000
541.9734	0.0000	0.0000	0.0000	0.0000	0.0001	0.0000	0.0000	0.0000	0.0000	0.0000	0.0000	0.0000
542.0064	0.0000	0.0000	0.0000	0.0000	0.0001	0.0000	0.0000	0.0000	0.0000	0.0000	0.0000	0.0000
542.0398	0.0000	0.0000	0.0000	0.0000	0.0000	0.0000	0.0000	0.0000	0.0000	0.0000	0.0000	0.0000
542.0728	0.0000	0.0000	0.0000	0.0000	0.0000	0.0000	0.0000	0.0000	0.0000	0.0000	0.0000	0.0000
542.1062	0.0000	0.0000	0.0000	0.0000	0.0000	0.0000	0.0000	0.0000	0.0000	0.0000	0.0000	0.0000
542.1392	0.0000	0.0000	0.0002	0.0000	0.0001	0.0000	0.0000	0.0000	0.0000	0.0000	0.0000	0.0000
542.1721	0.0000	0.0000	0.0002	0.0000	0.0001	0.0000	0.0000	0.0000	0.0000	0.0000	0.0000	0.0000
542.2056	0.0000	0.0000	0.0006	0.0000	0.0000	0.0000	0.0000	0.0000	0.0000	0.0000	0.0000	0.0000
542.2385	0.0003	0.0000	0.0001	0.0000	0.0003	0.0000	0.0000	0.0000	0.0000	0.0000	0.0000	0.0000
542.2715	0.0004	0.0000	0.0005	0.0000	0.0000	0.0000	0.0000	0.0000	0.0000	0.0000	0.0000	0.0000
542.3050	0.0007	0.0000	0.0011	0.0000	0.0000	0.0000	0.0000	0.0000	0.0000	0.0000	0.0000	0.0000
542.3379	0.0003	0.0000	0.0002	0.0000	0.0003	0.0000	0.0000	0.0000	0.0000	0.0000	0.0000	0.0000
542.3709	0.0005	0.0000	0.0042	0.0000	0.0002	0.0000	0.0000	0.0000	0.0000	0.0000	0.0000	0.0000
542.4044	0.0010	0.0000	0.0068	0.0000	0.0010	0.0000	0.0000	0.0000	0.0000	0.0000	0.0000	0.0000
542.4373	0.0019	0.0000	0.0094	0.0000	0.0014	0.0000	0.0000	0.0000	0.0000	0.0000	0.0000	0.0000
542.4703	0.0007	0.0000	0.0140	0.0000	0.0036	0.0000	0.0000	0.0000	0.0000	0.0000	0.0000	0.0000
542.5038	0.0034	0.0000	0.0160	0.0000	0.0079	0.0000	0.0000	0.0000	0.0000	0.0000	0.0000	0.0000
542.5368	0.0047	0.0000	0.0166	0.0000	0.0106	0.0000	0.0000	0.0000	0.0000	0.0000	0.0000	0.0000
542.5698	0.0092	0.0000	0.0262	0.0000	0.0191	0.0000	0.0000	0.0000	0.0000	0.0000	0.0000	0.0000
542.6029	0.0143	0.0000	0.0360	0.0000	0.0247	0.0000	0.0000	0.0000	0.0000	0.0000	0.0000	0.0000
542.6364	0.0248	0.0000	0.0466	0.0000	0.0257	0.0000	0.0001	0.0000	0.0000	0.0000	0.0001	0.0000
542.6694	0.0280	0.0000	0.0433	0.0000	0.0370	0.0000	0.0000	0.0000	0.0000	0.0000	0.0002	0.0000
542.7024	0.0290	0.0000	0.0610	0.0000	0.0484	0.0000	0.0001	0.0000	0.0000	0.0000	0.0005	0.0000
542.7359	0.0450	0.0000	0.0799	0.0000	0.0581	0.0000	0.0006	0.0000	0.0000	0.0000	0.0004	0.0000
542.7688	0.0606	0.0000	0.0863	0.0000	0.0744	0.0000	0.0000	0.0000	0.0000	0.0000	0.0005	0.0000
542.8018	0.0650	0.0000	0.1137	0.0000	0.0927	0.0000	0.0010	0.0000	0.0000	0.0000	0.0014	0.0000
542.8348	0.0856	0.0000	0.1118	0.0000	0.0896	0.0000	0.0017	0.0000	0.0003	0.0000	0.0025	0.0000
542.8683	0.1074	0.0000	0.1356	0.0000	0.1217	0.0000	0.0013	0.0000	0.0002	0.0000	0.0048	0.0000
542.9014	0.1082	0.0000	0.1594	0.0000	0.1364	0.0000	0.0018	0.0000	0.0004	0.0000	0.0079	0.0000
542.9344	0.1382	0.0000	0.1983	0.0000	0.1765	0.0000	0.0062	0.0000	0.0009	0.0000	0.0130	0.0000
542.9675	0.1512	0.0000	0.1837	0.0000	0.1714	0.0000	0.0108	0.0000	0.0012	0.0000	0.0188	0.0000
543.0006	0.1776	0.0000	0.2250	0.0000	0.2130	0.0000	0.0206	0.0000	0.0030	0.0000	0.0230	0.0000
543.0337	0.1933	0.0000	0.2893	0.0000	0.2545	0.0000	0.0278	0.0000	0.0030	0.0000	0.0281	0.0000
543.0668	0.2157	0.0000	0.2552	0.0001	0.2596	0.0000	0.0345	0.0000	0.0048	0.0000	0.0406	0.0000
543.1003	0.2644	0.0000	0.3242	0.0001	0.3053	0.0001	0.0451	0.0000	0.0144	0.0000	0.0565	0.0000
543.1335	0.2694	0.0000	0.3721	0.0001	0.3618	0.0001	0.0585	0.0000	0.0275	0.0000	0.0663	0.0000
543.1665	0.3268	0.0001	0.4057	0.0001	0.3695	0.0001	0.0801	0.0000	0.0351	0.0000	0.0789	0.0000
543.1996	0.3596	0.0001	0.4726	0.0001	0.4382	0.0001	0.0986	0.0000	0.0442	0.0000	0.0976	0.0000
543.2327	0.4059	0.0001	0.4717	0.0001	0.4554	0.0001	0.1219	0.0000	0.0629	0.0000	0.1293	0.0000
543.2658	0.4608	0.0001	0.5657	0.0001	0.5270	0.0001	0.1358	0.0000	0.0864	0.0000	0.1535	0.0000
543.2990	0.4751	0.0001	0.5476	0.0002	0.5482	0.0001	0.1814	0.0000	0.1094	0.0000	0.1814	0.0000
543.3321	0.5598	0.0001	0.6489	0.0002	0.6523	0.0002	0.2209	0.0000	0.1511	0.0000	0.2321	0.0000
543.3653	0.5769	0.0001	0.6847	0.0002	0.6610	0.0002	0.2289	0.0000	0.1534	0.0000	0.2666	0.0000
543.3985	0.6402	0.0002	0.7617	0.0002	0.7627	0.0002	0.2743	0.0000	0.1953	0.0000	0.2990	0.0000
543.4312	0.6900	0.0002	0.8617	0.0003	0.8049	0.0002	0.3569	0.0001	0.2545	0.0000	0.3474	0.0001
543.4644	0.7686	0.0002	0.8725	0.0003	0.8878	0.0003	0.3469	0.0001	0.2647	0.0000	0.4035	0.0001
543.4976	0.8631	0.0002	0.9555	0.0003	0.9939	0.0003	0.4364	0.0001	0.3163	0.0000	0.4301	0.0001
543.5308	0.8988	0.0003	1.0620	0.0003	1.0055	0.0003	0.4584	0.0001	0.3948	0.0001	0.4951	0.0001
543.5641	0.9819	0.0003	1.0754	0.0004	1.1223	0.0004	0.5322	0.0001	0.4160	0.0001	0.5553	0.0001
543.5973	1.1124	0.0003	1.2303	0.0004	1.2169	0.0004	0.5575	0.0001	0.5016	0.0001	0.6189	0.0001
543.6305	1.1178	0.0004	1.2972	0.0005	1.3337	0.0004	0.6628	0.0002	0.5152	0.0001	0.6576	0.0002
543.6632	1.2575	0.0004	1.4288	0.0005	1.3687	0.0005	0.6674	0.0002	0.6245	0.0001	0.7634	0.0002
543.6964	1.3569	0.0005	1.4568	0.0006	1.4941	0.0006	0.7734	0.0002	0.6270	0.0002	0.7912	0.0002
543.7296	1.4866	0.0005	1.5467	0.0006	1.6294	0.0006	0.8096	0.0002	0.7576	0.0002	0.9003	0.0002
543.7629	1.4995	0.0006	1.7014	0.0007	1.7155	0.0007	0.9153	0.0003	0.8039	0.0002	0.9531	0.0003
543.7961	1.6402	0.0006	1.8169	0.0007	1.8306	0.0007	1.0249	0.0003	0.8967	0.0002	1.0071	0.0003
543.8293	1.7696	0.0007	1.9098	0.0008	1.9572	0.0008	1.0512	0.0003	0.9826	0.0003	1.1204	0.0003
543.8621	1.8914	0.0007	2.0358	0.0009	2.0654	0.0009	1.1584	0.0004	1.0482	0.0003	1.2117	0.0004
543.8953	1.9926	0.0008	2.1107	0.0010	2.1810	0.0009	1.2289	0.0004	1.1385	0.0003	1.2719	0.0004
543.9285	2.1319	0.0009	2.2756	0.0010	2.3232	0.0010	1.4084	0.0005	1.2323	0.0004	1.3828	0.0005
543.9617	2.2767	0.0009	2.4146	0.0011	2.4380	0.0011	1.4245	0.0005	1.3408	0.0004	1.4856	0.0005
543.9949	2.4078	0.0010	2.5452	0.0012	2.5837	0.0012	1.4971	0.0006	1.4369	0.0005	1.5746	0.0006
544.0281	2.5293	0.0011	2.6509	0.0013	2.7388	0.0013	1.6464	0.0006	1.5273	0.0006	1.7007	0.0006
544.0609	2.6929	0.0012	2.8195	0.0014	2.8532	0.0014	1.7183	0.0007	1.6248	0.0006	1.7284	0.0007
544.0941	2.8539	0.0013	2.9713	0.0015	3.0660	0.0015	1.8247	0.0007	1.7602	0.0007	1.9555	0.0007
544.1273	2.9895	0.0014	3.0145	0.0016	3.1648	0.0016	1.9725	0.0008	1.9134	0.0007	2.0498	0.0008
544.1605	3.1231	0.0015	3.2063	0.0017	3.2747	0.0017	2.1071	0.0009	2.0177	0.0008	2.1502	0.0009
544.1938	3.3158	0.0016	3.3662	0.0018	3.4744	0.0018	2.2363	0.0010	2.1344	0.0009	2.2727	0.0010
544.2265	3.4359	0.0017	3.5975	0.0019	3.6622	0.0019	2.3330	0.0010	2.2803	0.0009	2.3600	0.0010
544.2597	3.6300	0.0018	3.5868	0.0021	3.7471	0.0020	2.4377	0.0011	2.3735	0.0010	2.5120	0.0011
544.2929	3.7727	0.0019	3.8430	0.0022	3.9460	0.0022	2.5792	0.0012	2.4790	0.0011	2.7166	0.0012
544.3262	3.9655	0.0021	4.0980	0.0023	4.2436	0.0023	2.7315	0.0013	2.6449	0.0012	2.8315	0.0013
544.3594	4.1517	0.0022	4.1157	0.0025	4.2231	0.0025	2.9142	0.0014	2.8440	0.0013	2.9700	0.0014
544.3922	4.3020	0.0024	4.3766	0.0026	4.5263	0.0026	3.0347	0.0015	2.9279	0.0014	3.0700	0.0015
544.4254	4.6182	0.0025	4.4249	0.0028	4.6024	0.0028	3.0659	0.0016	3.0358	0.0015	3.1738	0.0016
544.4586	4.6645	0.0027	4.7216	0.0029	4.8514	0.0030	3.2946	0.0017	3.2376	0.0016	3.5026	0.0018
544.4919	4.9676	0.0028	4.8068	0.0031	5.0045	0.0031	3.4113	0.0018	3.3704	0.0017	3.5137	0.0019
544.5251	5.0090	0.0030	5.0838	0.0033	5.2766	0.0033	3.6076	0.0020	3.5864	0.0019	3.7517	0.0020
544.5579	5.3371	0.0032	5.1375	0.0035	5.3240	0.0035	3.6200	0.0021	3.6081	0.0020	3.9286	0.0021
544.5911	5.4903	0.0034	5.4643	0.0036	5.5478	0.0037	3.8914	0.0022	3.8858	0.0021	4.0271	0.0023
544.6244	5.7553	0.0036	5.4910	0.0038	5.8005	0.0039	4.1040	0.0024	4.0649	0.0022	4.2103	0.0024
544.6576	5.9823	0.0037	5.7908	0.0040	5.9227	0.0041	4.2060	0.0025	4.2070	0.0024	4.5320	0.0025
544.6908	6.0960	0.0040	6.0639	0.0042	6.1432	0.0043	4.4241	0.0027	4.4752	0.0025	4.4798	0.0027
544.7236	6.4066	0.0042	6.0790	0.0044	6.4132	0.0045	4.4894	0.0028	4.5205	0.0027	4.8072	0.0029
544.7568	6.5421	0.0044	6.3993	0.0046	6.4470	0.0047	4.7216	0.0030	4.7836	0.0029	4.8263	0.0030
544.7901	6.8934	0.0046	6.5044	0.0049	6.7999	0.0049	4.8102	0.0031	4.8638	0.0030	5.1305	0.0032
544.8233	6.9315	0.0048	6.8607	0.0051	6.9595	0.0052	5.1072	0.0033	5.1584	0.0032	5.1990	0.0034
544.8565	7.2483	0.0051	6.8404	0.0053	7.1791	0.0054	5.1572	0.0035	5.1907	0.0034	5.4810	0.0035
544.8892	7.4156	0.0053	7.1163	0.0056	7.4208	0.0056	5.3585	0.0037	5.4660	0.0036	5.6479	0.0037
544.9224	7.6498	0.0056	7.3729	0.0058	7.4606	0.0059	5.5375	0.0039	5.7126	0.0037	5.7771	0.0039
544.9557	7.9032	0.0058	7.5398	0.0061	7.7011	0.0062	5.7219	0.0040	5.7696	0.0040	6.0218	0.0041
544.9889	7.9594	0.0061	7.7320	0.0063	7.9459	0.0064	6.0239	0.0042	6.0044	0.0041	6.0700	0.0043
545.0221	8.3643	0.0064	7.9575	0.0066	8.1500	0.0067	5.9579	0.0044	6.3011	0.0044	6.3467	0.0045
545.0553	8.4516	0.0067	8.1570	0.0069	8.4168	0.0070	6.2753	0.0046	6.3331	0.0046	6.4862	0.0047
545.0880	8.6845	0.0069	8.3454	0.0072	8.6245	0.0073	6.4505	0.0049	6.5972	0.0048	6.7162	0.0050
545.1213	9.0986	0.0073	8.5404	0.0074	8.7508	0.0076	6.6990	0.0051	6.7178	0.0050	6.7859	0.0052
545.1545	9.1296	0.0075	8.7506	0.0077	9.0724	0.0079	6.7577	0.0053	7.0462	0.0053	7.0781	0.0054
545.1877	9.4747	0.0078	8.9385	0.0080	9.2416	0.0082	7.0045	0.0056	7.2211	0.0055	7.2567	0.0056
545.2210	9.6231	0.0082	9.1701	0.0084	9.4090	0.0085	7.1618	0.0058	7.2259	0.0057	7.3503	0.0059
545.2537	9.9287	0.0085	9.3522	0.0087	9.6561	0.0088	7.2285	0.0060	7.4290	0.0060	7.6672	0.0062
545.2870	10.1940	0.0089	9.5694	0.0090	9.7192	0.0091	7.4562	0.0063	7.6035	0.0063	7.7215	0.0064
545.3202	10.2176	0.0092	9.8064	0.0093	10.0414	0.0095	7.7667	0.0066	7.8590	0.0065	7.9345	0.0067
545.3534	10.7219	0.0095	9.9654	0.0097	10.2966	0.0098	7.9228	0.0068	7.9859	0.0068	8.1401	0.0069
545.3862	10.8163	0.0099	10.0876	0.0100	10.4379	0.0102	8.0436	0.0071	8.2154	0.0071	8.3104	0.0072
545.4194	11.0887	0.0103	10.3988	0.0103	10.6794	0.0105	8.1858	0.0074	8.3686	0.0073	8.5087	0.0075
545.4527	11.2007	0.0106	10.5369	0.0107	10.7366	0.0109	8.2949	0.0077	8.5260	0.0076	8.7223	0.0078
545.4859	11.4863	0.0110	10.8748	0.0111	11.0258	0.0112	8.5637	0.0079	8.7479	0.0079	8.8234	0.0081
545.5192	11.8791	0.0114	10.7825	0.0114	11.2725	0.0116	8.7633	0.0082	8.8418	0.0082	9.0343	0.0084
545.5519	11.7936	0.0118	11.1952	0.0118	11.3876	0.0120	8.8951	0.0085	9.0422	0.0085	9.1716	0.0087
545.5852	12.1974	0.0122	11.5033	0.0122	11.6619	0.0124	9.0427	0.0088	9.3628	0.0088	9.4472	0.0090
545.6184	12.4593	0.0126	11.4868	0.0126	11.9317	0.0128	9.1788	0.0091	9.5116	0.0092	9.6193	0.0093
545.6517	12.5931	0.0130	11.7587	0.0130	11.9794	0.0132	9.2676	0.0095	9.7053	0.0095	9.6280	0.0096
545.6844	13.0555	0.0135	12.1937	0.0134	12.2382	0.0136	9.7364	0.0098	9.8434	0.0098	9.9795	0.0100
545.7177	12.9828	0.0139	12.0970	0.0138	12.5366	0.0140	9.7298	0.0101	10.0597	0.0102	10.0837	0.0103
545.7510	13.3431	0.0143	12.4805	0.0142	12.6919	0.0144	9.8168	0.0104	10.1503	0.0105	10.1683	0.0106
545.7838	13.4679	0.0148	12.4710	0.0146	13.0457	0.0149	10.1003	0.0108	10.3666	0.0108	10.5065	0.0110
545.8171	13.7831	0.0152	12.9360	0.0150	13.0096	0.0153	10.1628	0.0111	10.5983	0.0112	10.8225	0.0113
545.8503	13.8807	0.0157	12.9978	0.0155	13.4113	0.0158	10.3184	0.0115	10.7587	0.0116	10.8368	0.0117
545.8836	14.1994	0.0162	13.2563	0.0159	13.3555	0.0162	11.0862	0.0118	10.9617	0.0119	11.0259	0.0120
545.9165	14.4294	0.0166	13.3119	0.0164	13.7416	0.0167	10.6086	0.0122	11.1870	0.0123	11.1641	0.0124
545.9498	14.5164	0.0171	13.6774	0.0168	13.7485	0.0171	11.0831	0.0126	11.1749	0.0127	11.2899	0.0128
545.9831	14.7811	0.0176	13.6093	0.0173	14.1097	0.0176	11.3093	0.0129	11.2933	0.0131	11.4570	0.0132
546.0158	14.8906	0.0181	14.0513	0.0177	14.2839	0.0181	11.2777	0.0133	11.7023	0.0134	11.6557	0.0136
546.0491	15.1090	0.0186	13.8509	0.0182	14.2846	0.0185	11.6444	0.0137	11.6946	0.0138	11.9154	0.0140
546.0824	15.3368	0.0191	14.3172	0.0187	14.6696	0.0190	11.7965	0.0141	11.8786	0.0142	11.9211	0.0144
546.1152	15.4676	0.0196	14.4669	0.0192	14.5878	0.0195	11.7944	0.0145	12.1367	0.0146	11.9697	0.0147
546.1486	15.6388	0.0201	14.4857	0.0197	14.8456	0.0200	11.7069	0.0149	12.1179	0.0150	12.1508	0.0152
546.1814	15.7347	0.0207	14.6919	0.0201	15.1264	0.0205	12.4149	0.0153	12.3466	0.0155	12.4056	0.0156
546.2147	16.0956	0.0212	14.8294	0.0206	14.9449	0.0210	12.2759	0.0157	12.3898	0.0159	12.5816	0.0160
546.2480	15.9393	0.0217	14.8165	0.0211	15.2930	0.0215	12.4012	0.0161	12.6327	0.0163	12.5061	0.0164
546.2808	16.2049	0.0223	15.0222	0.0216	15.4200	0.0220	12.5856	0.0165	12.6050	0.0167	12.6313	0.0168
546.3142	16.2913	0.0228	15.1273	0.0221	15.4436	0.0225	12.4842	0.0169	12.8532	0.0171	12.8408	0.0172
546.3470	16.5692	0.0233	15.1811	0.0226	15.6253	0.0231	12.7104	0.0174	12.8943	0.0176	12.9015	0.0177
546.3803	16.5991	0.0239	15.2914	0.0231	15.6473	0.0236	12.6122	0.0178	12.9870	0.0180	13.0151	0.0181
546.4137	16.5458	0.0244	15.4979	0.0237	16.0156	0.0241	13.0418	0.0182	13.0968	0.0184	13.0200	0.0185
546.4465	16.7293	0.0250	15.3134	0.0242	15.7715	0.0246	12.8117	0.0186	13.2122	0.0189	13.2942	0.0190
546.4799	16.8159	0.0255	15.6625	0.0247	16.0093	0.0252	13.1195	0.0191	13.2430	0.0193	13.1704	0.0194
546.5127	16.9606	0.0261	15.7481	0.0252	16.0584	0.0257	12.9611	0.0195	13.3871	0.0198	13.4690	0.0198
546.5460	17.2111	0.0267	15.8635	0.0257	16.2694	0.0262	13.3892	0.0199	13.3900	0.0202	13.3761	0.0203
546.5793	16.9612	0.0272	15.7048	0.0263	16.1467	0.0268	13.0555	0.0204	13.6617	0.0206	13.6636	0.0207
546.6121	17.0972	0.0278	15.9320	0.0268	16.3147	0.0273	13.4826	0.0208	13.5128	0.0211	13.4334	0.0212
546.6454	17.3392	0.0284	15.9304	0.0273	16.2633	0.0278	13.3274	0.0213	13.7523	0.0216	13.7489	0.0216
546.6787	17.2293	0.0290	16.1481	0.0278	16.4254	0.0284	13.6086	0.0217	13.5329	0.0220	13.5477	0.0221
546.7115	17.3238	0.0295	15.8997	0.0284	16.4162	0.0290	13.4489	0.0222	13.8350	0.0225	13.8645	0.0225
546.7449	17.4723	0.0301	16.1485	0.0289	16.3433	0.0295	13.6870	0.0226	13.8196	0.0229	13.6938	0.0230
546.7776	17.6240	0.0307	16.1258	0.0295	16.6140	0.0300	13.3482	0.0231	13.8947	0.0234	13.8561	0.0235
546.8110	17.5008	0.0313	16.3883	0.0300	16.5331	0.0306	13.6546	0.0235	13.8727	0.0238	13.8724	0.0239
546.8443	17.4589	0.0319	16.2024	0.0306	16.5672	0.0311	13.7245	0.0240	13.9217	0.0243	13.9798	0.0244
546.8771	17.5490	0.0324	16.2346	0.0311	16.6427	0.0317	13.7242	0.0244	14.2161	0.0248	14.0162	0.0248
546.9104	17.7032	0.0330	16.3217	0.0316	16.5236	0.0323	13.9204	0.0249	13.9120	0.0252	14.0327	0.0253
546.9437	17.7837	0.0336	16.3605	0.0322	16.7450	0.0328	13.8417	0.0253	14.2352	0.0257	14.1438	0.0258
546.9765	17.7380	0.0342	16.6072	0.0327	16.6741	0.0333	14.0019	0.0258	14.1802	0.0262	13.9679	0.0262
547.0099	17.7388	0.0348	16.2823	0.0333	16.7096	0.0339	13.7005	0.0262	14.1371	0.0266	14.1370	0.0267
547.0427	17.7220	0.0354	16.3287	0.0338	16.9903	0.0345	13.9479	0.0267	14.2520	0.0271	13.9824	0.0272
547.0760	17.9737	0.0360	16.5229	0.0343	16.7218	0.0350	14.0462	0.0272	14.0291	0.0276	14.1351	0.0276
547.1094	17.8399	0.0366	16.4293	0.0349	16.7778	0.0356	14.0585	0.0277	14.3026	0.0281	14.0288	0.0281
547.1422	17.8425	0.0372	16.5779	0.0354	16.9174	0.0361	14.1614	0.0281	14.3129	0.0285	14.2087	0.0286
547.1754	17.8362	0.0377	16.5529	0.0360	16.8366	0.0367	13.8391	0.0286	14.2398	0.0290	14.3507	0.0290
547.2088	17.9109	0.0383	16.6469	0.0365	16.9798	0.0372	14.0875	0.0290	14.2469	0.0295	14.1650	0.0295
547.2415	17.8970	0.0389	16.6278	0.0371	16.9433	0.0378	14.0010	0.0295	14.2312	0.0299	14.3693	0.0300
547.2749	17.9109	0.0395	16.3696	0.0376	16.8642	0.0384	14.0232	0.0300	14.2975	0.0304	14.1479	0.0305
547.3082	17.9464	0.0401	16.7914	0.0382	16.9335	0.0389	14.0523	0.0304	14.3491	0.0309	14.2904	0.0309
547.3409	17.8210	0.0407	16.6007	0.0387	17.0044	0.0395	13.9652	0.0309	14.1777	0.0314	14.2676	0.0314
547.3743	17.9849	0.0413	16.3225	0.0393	16.9101	0.0401	14.2355	0.0314	14.3143	0.0318	14.3282	0.0319
547.4076	17.9625	0.0419	16.6889	0.0398	16.9945	0.0406	14.0364	0.0318	14.3209	0.0323	14.2788	0.0324
547.4404	18.0448	0.0425	16.5002	0.0404	16.9534	0.0412	14.0468	0.0323	14.2256	0.0328	14.1292	0.0328
547.4737	17.9544	0.0431	16.5039	0.0409	16.7735	0.0417	14.0162	0.0328	14.3452	0.0333	14.4287	0.0333
547.5065	17.8883	0.0437	16.7244	0.0415	16.8362	0.0423	13.9635	0.0332	14.0185	0.0337	14.1807	0.0338
547.5399	17.9291	0.0443	16.4140	0.0420	16.8697	0.0428	14.3186	0.0337	14.2694	0.0342	14.3520	0.0342
547.5732	17.8748	0.0449	16.6761	0.0426	16.8890	0.0434	13.9702	0.0342	14.3709	0.0347	14.2348	0.0347
547.6060	17.9544	0.0454	16.5810	0.0431	17.0106	0.0440	14.0765	0.0346	14.2026	0.0351	14.3071	0.0352
547.6393	18.0363	0.0461	16.3451	0.0437	16.8885	0.0445	14.0639	0.0351	14.3541	0.0356	14.3296	0.0357
547.6721	17.9421	0.0466	16.6148	0.0442	16.7637	0.0451	14.0090	0.0356	14.0939	0.0361	14.1150	0.0361
547.7054	17.8396	0.0472	16.5730	0.0447	16.8633	0.0456	14.2246	0.0360	14.2439	0.0366	14.4108	0.0366
547.7387	17.9724	0.0478	16.4593	0.0453	16.7266	0.0462	13.9307	0.0365	14.4358	0.0370	14.1049	0.0371
547.7715	17.9250	0.0484	16.6551	0.0458	16.8653	0.0468	14.0735	0.0369	14.1510	0.0375	14.1300	0.0375
547.8048	18.0803	0.0490	16.3959	0.0464	17.1541	0.0473	14.1010	0.0374	14.2002	0.0380	14.1312	0.0380
547.8381	17.9583	0.0496	16.6205	0.0469	16.7480	0.0479	14.0420	0.0379	14.2455	0.0384	14.3122	0.0385
547.8714	17.8854	0.0502	16.5969	0.0475	16.7060	0.0484	14.1966	0.0384	14.2719	0.0389	14.3754	0.0390
547.9042	17.7967	0.0508	16.3313	0.0481	16.9358	0.0490	14.0355	0.0388	14.3782	0.0394	14.1854	0.0394
547.9375	17.8485	0.0514	16.6898	0.0486	16.7556	0.0495	14.2011	0.0393	14.0794	0.0399	14.4023	0.0399
547.9708	17.8496	0.0520	16.5930	0.0491	16.8664	0.0501	13.9726	0.0398	14.2813	0.0403	14.1320	0.0404
548.0036	17.9254	0.0526	16.4589	0.0497	16.9289	0.0507	14.0144	0.0402	14.2930	0.0408	14.2809	0.0408
548.0370	17.9257	0.0532	16.5680	0.0502	16.6989	0.0512	14.0303	0.0407	14.1866	0.0413	14.0556	0.0413
548.0698	17.8975	0.0538	16.3660	0.0508	16.7355	0.0518	13.9642	0.0411	14.3341	0.0418	14.1820	0.0418
548.1031	17.8172	0.0544	16.6022	0.0513	16.8545	0.0523	14.1766	0.0416	14.0900	0.0422	14.3788	0.0423
548.1364	17.8740	0.0549	16.5353	0.0519	16.7688	0.0529	13.9459	0.0421	14.2749	0.0427	14.1624	0.0427
548.1692	17.9867	0.0556	16.2053	0.0524	16.9624	0.0534	14.1104	0.0425	14.3477	0.0432	14.3888	0.0432
548.2025	17.9619	0.0561	16.5340	0.0529	16.6871	0.0540	14.0153	0.0430	14.1456	0.0436	14.0589	0.0437
548.2358	17.8230	0.0567	16.3400	0.0535	16.5885	0.0546	14.0421	0.0436	14.2930	0.0441	14.3154	0.0443
548.2686	17.7780	0.0573	16.4103	0.0540	16.8433	0.0551	14.2518	0.0439	14.1500	0.0446	14.1253	0.0446
548.3019	17.7624	0.0579	16.4902	0.0546	16.8080	0.0557	13.9021	0.0444	14.2013	0.0450	14.1794	0.0452
548.3352	17.8690	0.0585	16.2151	0.0551	16.7409	0.0562	14.0185	0.0450	14.3311	0.0455	14.2367	0.0457
548.3680	17.8622	0.0591	16.5020	0.0557	16.9065	0.0568	14.1269	0.0453	14.1380	0.0460	14.2142	0.0460
548.4014	17.8396	0.0597	16.3722	0.0562	16.6524	0.0573	13.9051	0.0459	14.2163	0.0464	14.2189	0.0466
548.4342	17.8359	0.0603	16.4176	0.0568	16.6788	0.0579	14.0179	0.0462	14.1256	0.0469	14.0575	0.0471
548.4675	17.9364	0.0609	16.5530	0.0573	16.8421	0.0584	13.8591	0.0468	14.0983	0.0474	14.1977	0.0475
548.5008	17.8610	0.0614	16.2809	0.0578	16.7225	0.0590	14.0926	0.0473	14.2967	0.0479	14.0497	0.0480
548.5337	17.9118	0.0621	16.4737	0.0584	16.9393	0.0595	13.8608	0.0476	14.0001	0.0483	14.2629	0.0485
548.5669	17.8087	0.0626	16.5643	0.0589	16.6490	0.0601	13.9845	0.0482	14.1986	0.0488	14.0589	0.0490
548.6002	17.7181	0.0632	16.2819	0.0595	16.7265	0.0607	13.9426	0.0487	14.2103	0.0493	13.9757	0.0494
548.6330	17.7115	0.0638	16.5546	0.0600	16.7388	0.0612	13.7709	0.0491	14.1084	0.0497	14.2019	0.0499
548.6663	17.7723	0.0644	16.3234	0.0606	16.6606	0.0618	14.2544	0.0496	14.2397	0.0502	14.0497	0.0503
548.6996	17.7688	0.0650	16.4330	0.0611	16.7119	0.0623	13.7827	0.0501	14.0116	0.0507	14.3091	0.0508
548.7325	17.7223	0.0656	16.5150	0.0616	16.7959	0.0629	14.0957	0.0505	14.2180	0.0511	14.0380	0.0513
548.7658	17.7380	0.0662	16.2267	0.0622	16.5444	0.0634	14.0238	0.0510	14.1790	0.0516	14.1632	0.0518
548.7991	17.7370	0.0667	16.3957	0.0627	16.6538	0.0640	13.6528	0.0515	14.1229	0.0521	13.9667	0.0522
548.8319	17.7414	0.0673	16.3316	0.0633	16.5818	0.0645	13.9125	0.0519	14.1892	0.0525	14.0248	0.0527
548.8652	17.8380	0.0679	16.3850	0.0638	16.6127	0.0651	13.8524	0.0524	13.9344	0.0530	14.1126	0.0531
548.8985	17.6988	0.0685	16.3858	0.0645	16.8697	0.0656	14.0162	0.0528	14.1590	0.0535	14.1766	0.0536
548.9313	17.6147	0.0691	16.1746	0.0649	16.5184	0.0662	13.7460	0.0533	14.1706	0.0539	14.1936	0.0541
548.9646	17.6552	0.0697	16.4838	0.0656	16.5676	0.0667	13.6905	0.0537	14.0320	0.0544	13.9423	0.0546
548.9979	17.7181	0.0703	16.2242	0.0661	16.6736	0.0673	13.8999	0.0542	14.1019	0.0549	14.1343	0.0550
549.0308	17.7209	0.0709	16.3497	0.0667	16.5907	0.0678	13.7285	0.0547	13.9105	0.0553	13.8975	0.0555
549.0641	17.6078	0.0714	16.4387	0.0672	16.8314	0.0684	14.0199	0.0551	14.0707	0.0558	14.1174	0.0559
549.0969	17.6690	0.0720	16.2151	0.0677	16.5517	0.0689	14.0059	0.0556	14.1054	0.0563	14.2179	0.0564
549.1302	17.7530	0.0726	16.4084	0.0683	16.6037	0.0695	13.8824	0.0561	14.1850	0.0567	14.1458	0.0569
549.1635	17.8740	0.0732	16.3049	0.0688	16.7450	0.0700	13.9747	0.0565	14.2374	0.0572	13.9903	0.0573
549.1964	17.6626	0.0738	16.3639	0.0694	16.4917	0.0706	13.6938	0.0570	13.9700	0.0577	13.9073	0.0578
549.2297	17.5544	0.0744	16.1088	0.0699	16.7473	0.0711	13.8264	0.0574	13.9576	0.0581	14.0950	0.0583
549.2630	17.6486	0.0749	16.2122	0.0704	16.5035	0.0717	13.5735	0.0579	13.9756	0.0586	13.9978	0.0587
549.2958	17.5877	0.0755	16.3180	0.0710	16.4474	0.0722	13.8338	0.0583	14.1081	0.0591	14.2490	0.0592
549.3291	17.7101	0.0761	16.2250	0.0715	16.6208	0.0728	13.9004	0.0588	14.2068	0.0595	14.0119	0.0597
549.3624	17.6267	0.0767	16.2494	0.0720	16.4896	0.0733	13.7341	0.0592	13.9762	0.0600	13.9701	0.0601
549.3952	17.5748	0.0773	16.0254	0.0726	16.6222	0.0739	13.7300	0.0597	13.9835	0.0604	13.8106	0.0606
549.4285	17.6820	0.0779	16.2795	0.0731	16.3647	0.0744	13.7005	0.0602	13.7933	0.0609	14.0511	0.0611
549.4613	17.7031	0.0785	16.1827	0.0736	16.4566	0.0750	13.8271	0.0606	13.9345	0.0614	13.9142	0.0615
549.4946	17.5929	0.0790	16.3972	0.0742	16.5485	0.0755	13.7096	0.0611	13.9289	0.0618	13.9130	0.0620
549.5279	17.4887	0.0796	16.0701	0.0747	16.5014	0.0761	13.7635	0.0615	13.8949	0.0623	13.9936	0.0624
549.5608	17.5697	0.0802	16.1764	0.0752	16.7217	0.0766	13.6389	0.0620	14.0269	0.0628	13.8354	0.0629
549.5941	17.6582	0.0808	16.2655	0.0758	16.4264	0.0771	13.7639	0.0624	13.7095	0.0632	13.8758	0.0634
549.6269	17.6059	0.0814	16.3016	0.0763	16.4692	0.0777	13.7660	0.0629	13.9241	0.0637	13.8806	0.0638
549.6602	17.6699	0.0819	16.2873	0.0769	16.5991	0.0783	13.8424	0.0633	13.8708	0.0641	14.1632	0.0643
549.6935	17.5725	0.0825	16.1098	0.0774	16.5199	0.0788	13.9298	0.0638	13.9484	0.0646	13.9600	0.0648
549.7264	17.6642	0.0831	16.2547	0.0779	16.7591	0.0794	13.8142	0.0643	14.0965	0.0651	14.0599	0.0652
549.7597	17.8198	0.0837	16.2193	0.0785	16.4581	0.0799	13.8874	0.0647	13.8547	0.0655	13.7957	0.0657
549.7930	17.5804	0.0843	16.2427	0.0790	16.4982	0.0804	13.6508	0.0652	13.9767	0.0660	13.9503	0.0661
549.8258	17.5727	0.0849	16.3062	0.0795	16.5891	0.0810	13.8711	0.0656	13.9547	0.0664	13.8591	0.0666
549.8591	17.5519	0.0854	16.0622	0.0801	16.4939	0.0815	13.8275	0.0661	13.9280	0.0669	13.9803	0.0670
549.8924	17.6839	0.0860	16.3087	0.0806	16.6986	0.0821	13.6982	0.0665	14.0664	0.0674	14.0153	0.0675
549.9252	17.6744	0.0866	16.1983	0.0811	16.3866	0.0826	13.8964	0.0670	13.9517	0.0678	14.0046	0.0680
549.9585	17.6021	0.0872	16.3535	0.0817	16.4868	0.0832	13.6732	0.0675	14.1540	0.0683	14.0044	0.0684
549.9918	17.6664	0.0878	16.2728	0.0823	16.5661	0.0837	13.9294	0.0679	13.7380	0.0688	14.0093	0.0689
550.0246	17.5844	0.0884	16.1141	0.0828	16.5413	0.0843	13.6349	0.0684	13.9426	0.0692	13.9726	0.0694
550.0579	17.7954	0.0890	16.2826	0.0833	16.7494	0.0848	13.8634	0.0688	13.9622	0.0697	13.8488	0.0698
550.0912	17.6262	0.0896	16.2052	0.0838	16.5083	0.0854	13.9924	0.0693	13.9961	0.0701	14.1360	0.0703
550.1240	17.5986	0.0901	16.4192	0.0844	16.4993	0.0859	13.8751	0.0698	14.1829	0.0706	13.8824	0.0708
550.1573	17.6335	0.0907	16.1315	0.0849	16.6434	0.0865	13.8432	0.0702	13.9566	0.0711	14.0123	0.0712
550.1906	17.7325	0.0913	16.2548	0.0855	16.5686	0.0870	13.8083	0.0707	14.0429	0.0715	13.8525	0.0717
550.2235	17.5683	0.0919	16.2845	0.0860	16.7335	0.0876	14.0820	0.0711	13.9632	0.0720	13.9269	0.0722
550.2568	17.5805	0.0925	16.2040	0.0865	16.5303	0.0881	13.7300	0.0716	14.0455	0.0725	13.9584	0.0726
550.2896	17.6730	0.0930	16.4312	0.0871	16.4882	0.0887	13.8142	0.0721	14.1806	0.0729	14.0074	0.0731
550.3229	17.7488	0.0936	16.1246	0.0876	16.6369	0.0892	13.6185	0.0725	13.9771	0.0734	14.1562	0.0735
550.3562	17.7728	0.0942	16.2313	0.0882	16.5686	0.0898	13.7739	0.0730	14.0305	0.0739	13.9161	0.0740
550.3890	17.5129	0.0948	16.2305	0.0887	16.7471	0.0903	13.8067	0.0734	13.9020	0.0743	14.0682	0.0745
550.4223	17.5088	0.0954	16.4566	0.0892	16.5448	0.0909	13.8188	0.0739	14.0372	0.0748	13.8316	0.0749
550.4556	17.6160	0.0960	16.2844	0.0898	16.4864	0.0914	13.8778	0.0743	14.0915	0.0752	14.0640	0.0754
550.4884	17.7089	0.0966	16.1505	0.0903	16.7795	0.0920	13.6225	0.0748	13.9393	0.0757	13.8414	0.0758
550.5217	17.6306	0.0972	16.3536	0.0909	16.6091	0.0925	13.9300	0.0752	14.0454	0.0762	14.0377	0.0763
550.5550	17.6022	0.0977	16.2565	0.0914	16.8015	0.0931	13.6325	0.0757	13.8996	0.0766	13.9870	0.0768
550.5879	17.6193	0.0983	16.3966	0.0919	16.6897	0.0936	13.8474	0.0761	14.0560	0.0771	13.9935	0.0772
550.6212	17.7745	0.0989	16.2114	0.0925	16.5460	0.0942	13.7948	0.0766	14.1199	0.0776	14.0622	0.0777
550.6541	17.6702	0.0995	16.3431	0.0930	16.6619	0.0948	13.7624	0.0770	13.9506	0.0780	14.0067	0.0782
550.6874	17.5857	0.1001	16.4049	0.0935	16.5857	0.0953	13.8286	0.0775	14.1861	0.0785	14.0924	0.0786
550.7207	17.6073	0.1006	16.2385	0.0941	16.7134	0.0958	13.7385	0.0780	13.9566	0.0790	13.9458	0.0791
550.7535	17.5787	0.1012	16.4631	0.0946	16.6863	0.0964	13.9518	0.0784	14.0966	0.0794	14.1329	0.0795
550.7868	17.8118	0.1018	16.2765	0.0952	16.4899	0.0969	13.8132	0.0789	14.0794	0.0799	13.9183	0.0800
550.8201	17.6824	0.1024	16.2755	0.0957	16.6234	0.0975	13.8300	0.0794	14.0690	0.0804	14.1281	0.0805
550.8529	17.6925	0.1030	16.3749	0.0963	16.6875	0.0980	13.6546	0.0798	14.1736	0.0808	13.9033	0.0809
550.8862	17.6919	0.1036	16.3000	0.0968	16.6340	0.0986	13.9131	0.0803	13.8455	0.0813	13.9509	0.0814
550.9195	17.7839	0.1042	16.4777	0.0973	16.7917	0.0991	13.8699	0.0807	14.0414	0.0818	14.0568	0.0819
550.9523	17.8058	0.1048	16.2258	0.0979	16.4911	0.0997	13.7007	0.0812	14.0563	0.0822	14.0533	0.0823
550.9856	17.6019	0.1053	16.2227	0.0984	16.5978	0.1002	13.9962	0.0816	14.0765	0.0827	14.0874	0.0828
551.0185	17.5734	0.1059	16.3536	0.0990	16.5064	0.1008	13.8842	0.0821	14.1379	0.0832	13.9724	0.0833
551.0518	17.6073	0.1065	16.2473	0.0995	16.6871	0.1013	13.8900	0.0826	13.9469	0.0836	14.1724	0.0837
551.0851	17.7917	0.1071	16.3690	0.1000	16.7266	0.1019	13.6185	0.0830	14.0765	0.0841	13.8371	0.0842
551.1179	17.6143	0.1077	16.0956	0.1006	16.5191	0.1024	13.6923	0.0835	13.9318	0.0846	13.9560	0.0847
551.1513	17.5885	0.1083	16.1834	0.1011	16.5067	0.1030	13.9459	0.0839	14.0401	0.0850	13.9074	0.0851
551.1841	17.6513	0.1089	16.2461	0.1016	16.5545	0.1035	13.8496	0.0844	14.1611	0.0855	14.1530	0.0856
551.2174	17.6573	0.1094	16.2304	0.1022	16.5551	0.1041	13.8395	0.0848	14.0354	0.0859	13.9566	0.0861
551.2507	17.7804	0.1100	16.3002	0.1027	16.7100	0.1046	13.7270	0.0853	14.0742	0.0864	14.0360	0.0865
551.2835	17.6076	0.1106	16.0986	0.1033	16.4134	0.1052	13.8341	0.0857	13.9349	0.0869	13.9560	0.0870
551.3169	17.6024	0.1112	16.1799	0.1038	16.5469	0.1057	13.5588	0.0862	13.9369	0.0873	13.9067	0.0874
551.3497	17.5237	0.1118	16.1479	0.1043	16.5582	0.1063	13.7734	0.0867	14.0140	0.0878	14.0386	0.0879
551.3830	17.6775	0.1123	16.4085	0.1049	16.5059	0.1068	13.6345	0.0871	13.8712	0.0883	13.9513	0.0884
551.4163	17.5848	0.1129	16.2231	0.1054	16.6787	0.1074	13.6688	0.0876	14.0535	0.0887	14.1220	0.0888
551.4491	17.5601	0.1135	16.1018	0.1059	16.4242	0.1079	13.9141	0.0880	13.8033	0.0892	13.8590	0.0893
551.4824	17.6175	0.1141	16.2850	0.1065	16.5378	0.1085	13.8371	0.0885	14.0094	0.0896	14.0866	0.0897
551.5158	17.6472	0.1147	16.2305	0.1070	16.5197	0.1090	13.8141	0.0889	14.0773	0.0901	13.7925	0.0902
551.5486	17.7351	0.1153	16.3988	0.1076	16.5129	0.1095	13.4999	0.0894	13.8966	0.0906	13.9333	0.0907
551.5819	17.6249	0.1158	16.1189	0.1081	16.6884	0.1101	13.8224	0.0898	13.9565	0.0910	13.7477	0.0911
551.6152	17.5247	0.1164	16.1652	0.1086	16.4010	0.1106	13.6095	0.0903	13.7628	0.0915	13.9377	0.0916
551.6480	17.6141	0.1170	16.3158	0.1092	16.5592	0.1112	13.8973	0.0907	14.0993	0.0920	14.1766	0.0921
551.6813	17.7096	0.1176	16.2308	0.1097	16.4643	0.1118	13.8516	0.0912	14.0916	0.0924	13.9225	0.0925
551.7146	17.6483	0.1182	16.4164	0.1103	16.6808	0.1123	13.6943	0.0917	13.9809	0.0929	13.8692	0.0930
551.7474	17.5928	0.1188	16.1296	0.1108	16.7682	0.1129	13.7335	0.0921	13.9976	0.0933	13.8215	0.0934
551.7807	17.6674	0.1194	16.3079	0.1113	16.5235	0.1134	13.7851	0.0926	13.8172	0.0938	13.9042	0.0939
551.8135	17.7953	0.1199	16.2776	0.1119	16.5627	0.1139	13.9996	0.0930	14.0656	0.0943	13.9157	0.0944
551.8469	17.6731	0.1205	16.2739	0.1124	16.5540	0.1145	13.7490	0.0935	13.9323	0.0947	14.1114	0.0948
551.8802	17.6562	0.1211	16.4101	0.1129	16.6295	0.1151	13.7639	0.0940	14.0835	0.0952	13.7411	0.0953
551.9130	17.5922	0.1217	16.1730	0.1135	16.7995	0.1156	13.7384	0.0944	14.0694	0.0957	13.8514	0.0957
551.9463	17.6710	0.1223	16.3461	0.1140	16.5356	0.1162	13.7679	0.0949	13.8320	0.0961	13.7880	0.0962
551.9796	17.7551	0.1229	16.3597	0.1146	16.5786	0.1167	13.7493	0.0953	14.0344	0.0966	13.8682	0.0967
552.0124	17.7466	0.1235	16.4529	0.1151	16.7522	0.1173	13.9801	0.0958	13.7584	0.0970	13.8342	0.0971
552.0457	17.7249	0.1240	16.4188	0.1156	16.6809	0.1178	14.0535	0.0962	14.0498	0.0975	14.1061	0.0976
552.0785	17.7802	0.1246	16.2698	0.1162	16.7645	0.1184	13.8017	0.0967	14.1266	0.0980	14.1505	0.0980
552.1118	17.7186	0.1252	16.3994	0.1167	16.5455	0.1189	13.9409	0.0972	14.0205	0.0984	13.9396	0.0985
552.1452	17.8964	0.1258	16.2807	0.1173	16.5393	0.1195	13.8608	0.0976	14.1685	0.0989	14.0615	0.0990
552.1780	17.6333	0.1264	16.3276	0.1178	16.6773	0.1200	13.7991	0.0981	13.8643	0.0994	13.8446	0.0994
552.2113	17.5873	0.1270	16.3639	0.1184	16.5946	0.1206	13.8683	0.0985	14.0078	0.0998	13.9870	0.0999
552.2446	17.5499	0.1276	16.1056	0.1189	16.6670	0.1211	13.9031	0.0990	14.0620	0.1003	13.9388	0.1003
552.2774	17.6540	0.1281	16.2891	0.1194	16.5496	0.1217	14.0535	0.0994	14.1076	0.1008	14.1931	0.1008
552.3107	17.7064	0.1287	16.1553	0.1200	16.4764	0.1222	13.8057	0.0999	14.2408	0.1012	13.9091	0.1013
552.3435	17.6595	0.1293	16.4019	0.1205	16.7108	0.1227	13.8476	0.1004	13.9622	0.1017	13.9782	0.1018
552.3768	17.7048	0.1299	16.2511	0.1210	16.5801	0.1233	13.6054	0.1008	14.0347	0.1022	13.9458	0.1022
552.4101	17.7246	0.1305	16.1837	0.1216	16.7057	0.1239	13.7718	0.1013	13.9105	0.1026	13.9452	0.1027
552.4430	17.8593	0.1311	16.3520	0.1221	16.6456	0.1244	13.9509	0.1017	13.9940	0.1031	13.9903	0.1031
552.4763	17.6390	0.1317	16.2548	0.1227	16.5764	0.1250	13.9347	0.1022	14.2611	0.1036	14.1783	0.1036
552.5096	17.6014	0.1323	16.4858	0.1232	16.6920	0.1255	14.0331	0.1027	14.1654	0.1040	14.3313	0.1042
552.5424	17.6015	0.1328	16.2566	0.1237	16.6628	0.1261	13.7410	0.1031	14.1388	0.1045	13.9114	0.1045
552.5757	17.7025	0.1334	16.2641	0.1243	16.6859	0.1266	13.8259	0.1036	14.0146	0.1050	14.0159	0.1051
552.6090	17.7921	0.1340	16.3541	0.1248	16.7675	0.1272	13.6587	0.1040	13.9863	0.1054	13.8532	0.1056
552.6418	17.6547	0.1346	16.2204	0.1253	16.4970	0.1277	14.0351	0.1045	14.1130	0.1059	14.0231	0.1060
552.6751	17.6164	0.1352	16.4472	0.1259	16.6464	0.1283	13.9075	0.1050	14.0685	0.1064	13.8866	0.1065
552.7084	17.6542	0.1358	16.1720	0.1265	16.5796	0.1288	13.7994	0.1054	14.1412	0.1068	14.0194	0.1070
552.7412	17.7986	0.1363	16.2086	0.1270	16.6363	0.1294	13.9328	0.1059	14.0395	0.1073	13.8766	0.1074
552.7745	17.6804	0.1369	16.3070	0.1275	16.7459	0.1299	13.6880	0.1063	14.0697	0.1077	13.9288	0.1079
552.8074	17.5643	0.1375	16.4050	0.1281	16.5067	0.1305	13.8991	0.1068	14.1535	0.1082	14.0370	0.1084
552.8407	17.6089	0.1381	16.4753	0.1286	16.7369	0.1310	13.7533	0.1072	14.0040	0.1087	13.9642	0.1088
552.8740	17.6367	0.1387	16.1358	0.1291	16.7331	0.1316	14.0050	0.1077	14.2152	0.1092	14.1961	0.1093
552.9069	17.7141	0.1393	16.2429	0.1297	16.7182	0.1321	13.8450	0.1082	14.0520	0.1096	13.9729	0.1098
552.9402	17.7215	0.1398	16.2666	0.1302	16.7939	0.1327	13.9535	0.1086	14.1064	0.1101	14.1343	0.1102
552.9735	17.6753	0.1404	16.3143	0.1308	16.4512	0.1332	14.0820	0.1091	14.2505	0.1105	13.9199	0.1107
553.0063	17.6748	0.1410	16.3701	0.1313	16.5365	0.1338	13.7926	0.1095	14.0485	0.1110	14.0086	0.1111
553.0396	17.7242	0.1416	16.1274	0.1318	16.6407	0.1343	13.8249	0.1100	14.2156	0.1115	13.9760	0.1116
553.0724	17.6439	0.1422	16.3397	0.1324	16.5752	0.1349	13.6945	0.1105	13.9010	0.1119	13.9073	0.1121
553.1057	17.5339	0.1428	16.1941	0.1329	16.7723	0.1354	13.9925	0.1109	14.0695	0.1124	14.0086	0.1125
553.1391	17.5160	0.1434	16.3259	0.1335	16.3667	0.1360	13.8733	0.1114	14.2404	0.1129	13.9992	0.1130
553.1719	17.5344	0.1439	16.2538	0.1340	16.4743	0.1365	13.7500	0.1118	14.0920	0.1134	14.1413	0.1135
553.2052	17.6585	0.1445	16.0810	0.1345	16.6063	0.1371	13.8996	0.1123	14.1472	0.1138	13.8330	0.1139
553.2385	17.5480	0.1451	16.2916	0.1351	16.5173	0.1376	13.7121	0.1128	13.9244	0.1143	14.1230	0.1144
553.2713	17.6314	0.1457	16.2610	0.1356	16.7370	0.1382	14.0724	0.1132	14.0484	0.1148	13.8850	0.1148
553.3046	17.6317	0.1463	16.4387	0.1361	16.4987	0.1387	13.7697	0.1137	14.1596	0.1152	14.1368	0.1153
553.3379	17.7925	0.1469	16.1402	0.1367	16.5408	0.1393	13.8216	0.1141	14.0764	0.1157	13.9685	0.1158
553.3708	17.5303	0.1474	16.2094	0.1372	16.6258	0.1398	13.8084	0.1146	14.1676	0.1162	14.0383	0.1162
553.4040	17.5886	0.1480	16.2869	0.1378	16.5627	0.1404	13.8004	0.1150	13.8778	0.1166	14.0253	0.1167
553.4374	17.6374	0.1486	16.2790	0.1383	16.7700	0.1409	13.9244	0.1155	14.0644	0.1171	13.9977	0.1172
553.4702	17.6618	0.1492	16.4683	0.1388	16.4746	0.1415	13.8339	0.1160	14.0655	0.1175	14.1581	0.1176
553.5035	17.8230	0.1498	16.1872	0.1394	16.6005	0.1420	14.1295	0.1164	14.0992	0.1180	14.0440	0.1181
553.5363	17.7325	0.1504	16.2772	0.1399	16.7606	0.1426	13.8016	0.1169	14.2464	0.1185	14.1724	0.1186
553.5697	17.7488	0.1510	16.4093	0.1404	16.6508	0.1431	13.8564	0.1173	13.9797	0.1190	13.9347	0.1190
553.6029	17.7540	0.1515	16.3803	0.1411	16.6966	0.1437	13.8500	0.1178	14.1803	0.1194	14.1849	0.1195
553.6358	17.8612	0.1521	16.4910	0.1415	16.7030	0.1442	13.8288	0.1183	14.1937	0.1199	13.9050	0.1200
553.6691	17.8616	0.1527	16.2440	0.1422	16.6206	0.1448	14.0255	0.1187	14.0880	0.1203	14.1568	0.1204
553.7019	17.7539	0.1533	16.3087	0.1426	16.7069	0.1453	13.8616	0.1192	14.2395	0.1208	14.0330	0.1209
553.7352	17.6540	0.1539	16.4121	0.1433	16.6051	0.1459	14.0305	0.1197	14.0195	0.1213	14.1680	0.1214
553.7685	17.7370	0.1545	16.4103	0.1439	16.6931	0.1464	13.9450	0.1201	14.2257	0.1218	14.2609	0.1218
553.8013	17.8167	0.1551	16.4631	0.1443	16.7526	0.1470	14.0029	0.1206	14.2716	0.1222	14.0614	0.1223
553.8346	17.8085	0.1557	16.3108	0.1449	16.6088	0.1475	13.9597	0.1210	14.1842	0.1227	14.2516	0.1228
553.8679	17.6782	0.1562	16.3062	0.1455	16.6774	0.1481	13.8801	0.1215	14.2338	0.1232	13.9092	0.1232
553.9007	17.7523	0.1568	16.4147	0.1460	16.6950	0.1487	14.1847	0.1220	14.1060	0.1236	14.1733	0.1237
553.9340	17.7728	0.1574	16.3873	0.1466	16.7107	0.1492	13.8603	0.1224	14.2686	0.1241	14.1825	0.1242
553.9668	17.9408	0.1580	16.5209	0.1471	16.9067	0.1498	14.0459	0.1229	14.2469	0.1246	14.2672	0.1246
554.0001	17.8551	0.1586	16.3767	0.1476	16.5709	0.1503	14.0521	0.1234	14.1190	0.1251	14.1665	0.1251
554.0334	17.7702	0.1592	16.3395	0.1482	16.6784	0.1509	13.8408	0.1238	14.1927	0.1255	14.0987	0.1256
554.0662	17.7927	0.1598	16.5093	0.1487	16.9184	0.1514	14.0673	0.1243	14.1586	0.1260	14.2088	0.1260
554.0995	17.7540	0.1604	16.4475	0.1493	16.8455	0.1520	13.9110	0.1247	14.1578	0.1265	14.1705	0.1265
554.1329	17.8824	0.1610	16.7364	0.1498	16.8031	0.1525	14.1961	0.1252	14.4109	0.1269	14.3625	0.1270
554.1657	17.9426	0.1616	16.4494	0.1504	16.9959	0.1531	13.9688	0.1257	14.1847	0.1274	14.0740	0.1275
554.1990	17.8118	0.1621	16.4609	0.1509	16.6732	0.1537	13.9997	0.1261	14.2762	0.1279	14.3211	0.1279
554.2318	17.8490	0.1628	16.6300	0.1515	16.7737	0.1542	14.1563	0.1266	14.2650	0.1284	14.2949	0.1284
554.2652	17.9431	0.1633	16.4344	0.1520	16.8595	0.1548	14.0917	0.1271	14.2307	0.1288	14.1319	0.1289
554.2985	17.9038	0.1639	16.5837	0.1526	16.8202	0.1553	14.0964	0.1275	14.3947	0.1293	14.2747	0.1293
554.3313	18.0046	0.1645	16.5589	0.1531	17.0071	0.1559	13.8970	0.1280	13.9767	0.1298	14.0664	0.1298
554.3646	17.8721	0.1651	16.3514	0.1537	16.8015	0.1565	14.2187	0.1285	14.2601	0.1302	14.3303	0.1303
554.3975	17.7181	0.1657	16.5175	0.1542	16.6862	0.1570	14.0437	0.1289	14.4152	0.1307	14.0874	0.1308
554.4308	17.8625	0.1663	16.4652	0.1547	16.8641	0.1576	13.9524	0.1294	14.1330	0.1312	14.2301	0.1312
554.4642	17.7851	0.1669	16.5769	0.1553	16.7604	0.1581	14.1852	0.1299	14.3651	0.1317	14.1890	0.1317
554.4970	17.9026	0.1675	16.6228	0.1558	16.7831	0.1587	13.9950	0.1303	14.1440	0.1321	14.1358	0.1322
554.5303	17.8587	0.1681	16.3696	0.1564	16.9727	0.1592	14.0068	0.1308	14.2461	0.1326	14.3601	0.1326
554.5631	17.7545	0.1686	16.3721	0.1569	16.6173	0.1598	13.9100	0.1313	14.2921	0.1331	14.0596	0.1331
554.5965	17.8576	0.1693	16.5416	0.1575	16.6699	0.1603	13.9041	0.1317	14.0880	0.1335	14.2286	0.1336
554.6293	17.8777	0.1698	16.3729	0.1580	16.8058	0.1609	14.0275	0.1322	14.1140	0.1340	14.0145	0.1340
554.6626	17.8870	0.1704	16.5745	0.1585	16.8000	0.1615	13.8933	0.1326	14.0994	0.1345	14.1396	0.1345
554.6960	17.9403	0.1710	16.3570	0.1591	16.9219	0.1620	14.0892	0.1331	14.2565	0.1349	14.1235	0.1350
554.7288	17.8409	0.1716	16.3606	0.1596	16.7695	0.1626	13.6966	0.1336	14.2716	0.1354	14.2045	0.1354
554.7622	17.7523	0.1722	16.4583	0.1602	16.6210	0.1631	13.8975	0.1340	14.0410	0.1359	14.1978	0.1359
554.7950	17.7388	0.1728	16.3796	0.1607	16.7409	0.1637	14.0179	0.1345	14.1286	0.1363	14.0607	0.1364
554.8283	17.7515	0.1734	16.6061	0.1613	16.6945	0.1642	13.9362	0.1349	14.1380	0.1368	14.2002	0.1368
554.8616	17.8466	0.1740	16.3703	0.1618	16.7869	0.1648	14.0260	0.1354	14.1788	0.1373	13.9774	0.1373
554.8944	17.6945	0.1746	16.3163	0.1624	16.8083	0.1653	13.8424	0.1359	14.2827	0.1378	14.1877	0.1378
554.9278	17.7651	0.1752	16.3895	0.1629	16.5860	0.1659	13.9100	0.1363	14.0355	0.1382	14.0320	0.1383
554.9611	17.7465	0.1757	16.2810	0.1635	16.7273	0.1664	13.8355	0.1368	14.1557	0.1387	14.2328	0.1387
554.9939	17.7515	0.1763	16.5725	0.1640	16.6511	0.1670	13.9516	0.1373	14.1790	0.1392	14.1926	0.1392
555.0272	17.8598	0.1769	16.2547	0.1645	16.6740	0.1675	13.9091	0.1377	14.1585	0.1396	14.0103	0.1396
555.0605	17.6568	0.1775	16.2965	0.1651	16.9108	0.1681	13.9217	0.1382	14.2071	0.1401	14.1556	0.1401
555.0933	17.7101	0.1781	16.5220	0.1656	16.5221	0.1686	14.0724	0.1386	13.9547	0.1406	14.0936	0.1406
555.1266	17.7248	0.1787	16.3940	0.1662	16.6060	0.1692	13.7350	0.1391	14.1177	0.1410	14.2003	0.1411
555.1599	17.7553	0.1793	16.6238	0.1667	16.8097	0.1698	13.8792	0.1396	14.0883	0.1415	13.9217	0.1415
555.1927	17.9262	0.1799	16.3279	0.1673	16.6781	0.1703	13.8712	0.1400	14.1461	0.1419	14.1945	0.1420
555.2260	17.8075	0.1804	16.4194	0.1678	16.8146	0.1709	13.9959	0.1405	14.2530	0.1424	14.0513	0.1425
555.2588	17.8354	0.1810	16.5401	0.1684	16.7148	0.1714	13.9891	0.1409	13.9952	0.1429	14.1140	0.1429
555.2922	17.8947	0.1816	16.5012	0.1689	16.6974	0.1720	13.9811	0.1414	14.1717	0.1434	14.1285	0.1434
555.3254	17.8802	0.1822	16.5599	0.1694	16.8369	0.1725	14.3051	0.1419	14.1972	0.1438	14.2047	0.1439
555.3583	18.0481	0.1828	16.5411	0.1700	16.7622	0.1731	13.8564	0.1423	14.2676	0.1443	14.4151	0.1443
555.3916	17.8870	0.1834	16.3245	0.1705	16.7617	0.1736	13.9968	0.1428	14.3589	0.1448	14.0791	0.1448
555.4244	17.7768	0.1840	16.4882	0.1711	16.8585	0.1742	14.0296	0.1432	13.9532	0.1452	14.2800	0.1453
555.4577	17.7729	0.1846	16.3926	0.1716	16.6600	0.1747	14.0365	0.1437	14.1818	0.1457	13.8966	0.1457
555.4910	17.8508	0.1852	16.4880	0.1722	16.6886	0.1753	14.0195	0.1442	14.2422	0.1462	14.1722	0.1462
555.5238	17.9070	0.1858	16.4972	0.1727	16.7957	0.1759	13.8933	0.1447	14.1783	0.1466	14.1608	0.1467
555.5571	17.8821	0.1864	16.3077	0.1733	16.6736	0.1764	13.9820	0.1451	14.3230	0.1471	14.0900	0.1472
555.5904	17.8636	0.1870	16.4348	0.1738	16.8138	0.1769	14.0000	0.1456	13.9712	0.1476	14.1380	0.1476
555.6232	17.7530	0.1875	16.3712	0.1743	16.7265	0.1775	13.9275	0.1460	14.1875	0.1481	14.1702	0.1481
555.6565	17.8135	0.1881	16.3841	0.1749	16.6504	0.1781	14.0185	0.1465	14.3139	0.1485	14.3449	0.1485
555.6898	17.9142	0.1887	16.4723	0.1754	16.7598	0.1786	13.9843	0.1471	14.1790	0.1490	14.0412	0.1490
555.7226	17.7927	0.1893	16.3467	0.1760	16.6970	0.1792	14.1286	0.1474	14.2464	0.1495	14.2166	0.1495
555.7559	17.7839	0.1899	16.4557	0.1765	16.7383	0.1797	13.8373	0.1480	13.9921	0.1499	14.0553	0.1500
555.7893	17.8019	0.1905	16.4070	0.1771	16.9359	0.1803	14.0339	0.1485	14.2105	0.1504	14.2398	0.1504
555.8221	17.8219	0.1911	16.4835	0.1776	16.7349	0.1808	14.0030	0.1488	14.2450	0.1509	14.0755	0.1509
555.8554	17.8232	0.1917	16.5513	0.1781	16.7108	0.1814	14.0784	0.1494	14.1190	0.1514	14.1848	0.1514
555.8887	17.8862	0.1923	16.2564	0.1787	16.8738	0.1820	14.0790	0.1498	14.3370	0.1518	14.3229	0.1518
555.9215	17.7974	0.1928	16.3451	0.1792	16.7588	0.1825	13.8125	0.1503	14.1661	0.1523	14.0134	0.1523
555.9549	17.8581	0.1935	16.4324	0.1798	16.8996	0.1831	14.0271	0.1508	14.1912	0.1527	14.0948	0.1527
555.9877	17.9033	0.1940	16.4784	0.1803	16.9742	0.1836	13.8448	0.1512	14.2121	0.1532	13.9708	0.1532
556.0210	17.8968	0.1946	16.5215	0.1809	16.6859	0.1842	13.9211	0.1517	14.1300	0.1537	14.1817	0.1537
556.0543	18.0576	0.1952	16.2792	0.1814	16.8418	0.1847	14.0116	0.1522	14.2028	0.1542	14.1134	0.1542
556.0871	17.8608	0.1958	16.4094	0.1820	16.7739	0.1853	14.0211	0.1526	14.1632	0.1546	14.2370	0.1547
556.1204	17.8590	0.1964	16.4484	0.1825	16.8418	0.1859	14.2177	0.1531	14.4060	0.1551	14.3634	0.1551
556.1532	17.8446	0.1970	16.4258	0.1830	16.9358	0.1864	13.7799	0.1535	14.4179	0.1556	14.2014	0.1556
556.1866	17.8464	0.1976	16.5888	0.1836	16.6711	0.1870	13.9524	0.1540	13.9991	0.1560	14.2468	0.1560
556.2199	17.9292	0.1982	16.3849	0.1841	16.8209	0.1875	13.9556	0.1545	14.1809	0.1565	14.0747	0.1565
556.2528	17.9069	0.1988	16.3722	0.1847	16.8663	0.1881	14.0144	0.1549	14.1897	0.1570	14.2019	0.1570
556.2861	17.8984	0.1994	16.5729	0.1852	16.7711	0.1886	14.1799	0.1554	14.2257	0.1575	14.0161	0.1575
556.3189	17.9186	0.2000	16.4860	0.1858	16.8600	0.1892	13.8647	0.1559	14.4574	0.1580	14.1945	0.1579
556.3522	17.9184	0.2006	16.6377	0.1863	16.9464	0.1898	14.0252	0.1563	14.0826	0.1584	14.2542	0.1584
556.3855	17.8952	0.2011	16.5029	0.1869	16.6338	0.1903	13.9014	0.1568	14.3293	0.1589	14.1919	0.1589
556.4183	17.9874	0.2018	16.2583	0.1874	16.7016	0.1909	14.0849	0.1573	14.3554	0.1594	14.3229	0.1593
556.4516	17.9511	0.2023	16.4437	0.1880	16.7679	0.1914	14.0028	0.1577	14.1591	0.1598	14.1469	0.1598
556.4850	17.7903	0.2029	16.3029	0.1885	16.6739	0.1920	13.9150	0.1582	14.2196	0.1603	14.2380	0.1603
556.5178	17.7605	0.2035	16.3929	0.1890	16.7909	0.1925	14.1636	0.1586	14.1751	0.1608	13.9978	0.1607
556.5511	17.7251	0.2041	16.3994	0.1896	16.6193	0.1931	13.7846	0.1591	14.2456	0.1612	14.2309	0.1612
556.5844	17.9300	0.2047	16.2169	0.1901	16.6531	0.1936	13.9049	0.1596	14.2931	0.1617	14.1497	0.1617
556.6172	17.8300	0.2053	16.4927	0.1906	16.8863	0.1942	13.8355	0.1600	14.0738	0.1622	14.0553	0.1621
556.6505	17.7325	0.2059	16.2701	0.1912	16.6894	0.1948	13.8864	0.1605	14.1083	0.1626	14.1463	0.1626
556.6833	17.8474	0.2065	16.3903	0.1917	16.7482	0.1953	14.0285	0.1610	14.1334	0.1631	14.0975	0.1631
556.7166	17.9230	0.2071	16.4974	0.1923	16.7984	0.1958	13.9850	0.1614	14.2115	0.1636	14.2644	0.1636
556.7499	18.0270	0.2077	16.3266	0.1928	16.6240	0.1964	14.1463	0.1619	14.3129	0.1641	14.0991	0.1640
556.7828	17.9346	0.2083	16.5202	0.1934	16.7431	0.1969	13.6991	0.1623	14.1196	0.1645	14.2206	0.1645
556.8161	17.8582	0.2089	16.4421	0.1939	16.7851	0.1975	13.8941	0.1628	14.1380	0.1650	13.8874	0.1650
556.8494	17.8593	0.2094	16.4452	0.1945	16.8238	0.1981	14.0330	0.1633	14.0774	0.1655	14.1625	0.1656
556.8822	17.8787	0.2100	16.6137	0.1950	16.9771	0.1986	13.9748	0.1637	14.1771	0.1659	14.1737	0.1659
556.9155	17.8883	0.2106	16.2357	0.1956	16.7153	0.1992	14.0755	0.1642	14.2275	0.1664	14.0861	0.1665
556.9488	17.8380	0.2112	16.4385	0.1961	16.6733	0.1999	13.9381	0.1646	14.1080	0.1669	14.2298	0.1669
556.9816	17.8088	0.2118	16.3700	0.1966	16.7453	0.2003	14.0991	0.1651	14.1851	0.1673	14.1512	0.1674
557.0149	17.7718	0.2124	16.3891	0.1972	16.6857	0.2008	13.8867	0.1656	14.1366	0.1678	14.2235	0.1679
557.0477	17.7927	0.2130	16.5452	0.1977	16.7169	0.2014	13.8656	0.1660	14.0867	0.1683	13.9485	0.1683
557.0810	17.7620	0.2136	16.3153	0.1983	16.7196	0.2019	14.0026	0.1665	14.1964	0.1687	14.0606	0.1688
557.1143	17.9949	0.2142	16.3885	0.1988	16.5574	0.2026	13.8684	0.1669	13.9487	0.1692	14.0170	0.1693
557.1472	17.7481	0.2147	16.4098	0.1994	16.7072	0.2031	14.0278	0.1674	14.1683	0.1697	14.1848	0.1698
557.1805	17.7088	0.2153	16.3632	0.1999	16.7324	0.2037	13.7998	0.1679	14.1090	0.1701	14.1629	0.1702
557.2134	17.7059	0.2159	16.5137	0.2004	16.7360	0.2042	14.0065	0.1683	14.0732	0.1706	14.1911	0.1707
557.2467	17.7553	0.2165	16.1754	0.2010	16.9031	0.2049	13.9269	0.1688	14.2907	0.1711	14.2890	0.1711
557.2800	17.8325	0.2171	16.3241	0.2015	16.5618	0.2054	13.9529	0.1693	13.9044	0.1715	14.0536	0.1716
557.3128	17.7581	0.2177	16.3469	0.2021	16.5848	0.2058	14.0578	0.1697	14.1748	0.1720	14.2785	0.1721
557.3462	17.7111	0.2183	16.3238	0.2026	16.6829	0.2065	13.9174	0.1702	14.1554	0.1725	14.0044	0.1726
557.3780	17.6691	0.2189	16.4916	0.2031	16.5887	0.2069	14.1220	0.1706	14.1142	0.1729	14.1906	0.1730
557.4123	17.7458	0.2195	16.1879	0.2037	16.8238	0.2076	13.7882	0.1711	14.2303	0.1734	14.0715	0.1735
557.4456	17.7890	0.2200	16.3089	0.2042	16.6112	0.2082	13.9333	0.1716	13.9572	0.1739	13.9640	0.1739
557.4784	17.6212	0.2206	16.2678	0.2048	16.5209	0.2087	13.9257	0.1720	14.0851	0.1743	14.0959	0.1744
557.5117	17.6109	0.2212	16.4112	0.2053	16.6350	0.2093	13.8381	0.1725	14.0240	0.1748	14.0036	0.1749
557.5450	17.6373	0.2218	16.4242	0.2058	16.5572	0.2098	14.0465	0.1729	14.0958	0.1752	14.1708	0.1754
557.5778	17.7602	0.2224	16.2158	0.2064	16.7924	0.2104	13.9435	0.1734	14.1890	0.1757	13.9906	0.1758
557.6112	17.7799	0.2230	16.4676	0.2069	16.6186	0.2109	13.9761	0.1739	13.9135	0.1762	14.1380	0.1763
557.6445	17.7231	0.2235	16.3133	0.2075	16.5749	0.2115	13.7634	0.1743	14.1421	0.1767	13.8292	0.1767
557.6773	17.6797	0.2241	16.3971	0.2080	16.7673	0.2120	13.8560	0.1748	14.0135	0.1771	14.0474	0.1772
557.7106	17.7546	0.2247	16.5473	0.2086	16.5873	0.2126	13.9599	0.1752	13.9961	0.1776	14.0355	0.1777
557.7434	17.9169	0.2253	16.2598	0.2091	16.7304	0.2131	13.9885	0.1757	14.3356	0.1781	14.2436	0.1781
557.7768	17.7220	0.2259	16.4158	0.2096	16.7300	0.2137	14.0405	0.1762	14.0005	0.1785	14.2686	0.1786
557.8101	17.7082	0.2265	16.3680	0.2102	16.6464	0.2142	13.7427	0.1766	14.1471	0.1790	14.0067	0.1791
557.8429	17.6720	0.2271	16.3660	0.2107	16.7600	0.2148	13.8067	0.1771	14.1099	0.1795	14.0471	0.1795
557.8762	17.7551	0.2277	16.5507	0.2113	16.5479	0.2153	13.7687	0.1776	14.1332	0.1799	14.0936	0.1800
557.9095	17.8698	0.2283	16.2807	0.2118	16.7299	0.2159	13.9743	0.1780	14.2902	0.1804	14.2512	0.1805
557.9422	17.7431	0.2288	16.3759	0.2123	16.8321	0.2165	13.9089	0.1785	13.9971	0.1809	14.0086	0.1809
557.9756	17.6454	0.2294	16.3371	0.2129	16.5241	0.2170	13.6918	0.1789	14.1320	0.1813	14.0245	0.1814
558.0084	17.7870	0.2300	16.3903	0.2134	16.6656	0.2175	13.8440	0.1794	13.9956	0.1818	13.9634	0.1819
558.0418	17.7007	0.2306	16.4333	0.2140	16.5902	0.2181	13.8076	0.1798	13.9676	0.1823	13.9497	0.1823
558.0746	17.8286	0.2312	16.3143	0.2145	16.6185	0.2186	13.8715	0.1803	14.2097	0.1827	14.1304	0.1828
558.1079	17.5940	0.2318	16.4276	0.2151	16.9414	0.2192	13.7502	0.1808	14.0275	0.1832	14.0480	0.1833
558.1412	17.6042	0.2324	16.2853	0.2156	16.5759	0.2198	13.9074	0.1812	14.0631	0.1837	14.1229	0.1837
558.1741	17.6674	0.2329	16.3966	0.2162	16.6285	0.2203	13.8507	0.1817	14.0344	0.1841	13.9192	0.1842
558.2075	17.7295	0.2335	16.4026	0.2167	16.8008	0.2209	13.7615	0.1822	14.0336	0.1846	14.1378	0.1847
558.2403	17.7385	0.2341	16.2581	0.2172	16.6847	0.2214	13.9906	0.1826	14.1832	0.1851	13.8591	0.1851
558.2736	17.6665	0.2347	16.3008	0.2177	16.7854	0.2220	13.8516	0.1830	13.9847	0.1855	13.9877	0.1856
558.3069	17.7113	0.2353	16.2344	0.2183	16.5931	0.2225	13.8715	0.1835	14.0842	0.1860	13.9050	0.1860
558.3397	17.7189	0.2359	16.3471	0.2188	16.4770	0.2231	13.6595	0.1840	13.9782	0.1865	13.9945	0.1865
558.3730	17.7933	0.2365	16.3721	0.2194	16.6491	0.2236	13.8381	0.1844	14.0517	0.1869	14.1581	0.1870
558.4063	17.5236	0.2371	16.1451	0.2201	16.5812	0.2242	13.7973	0.1849	14.0969	0.1874	13.9579	0.1874
558.4391	17.5004	0.2376	16.3742	0.2205	16.7370	0.2247	13.6457	0.1853	13.9373	0.1878	14.0196	0.1879
558.4724	17.5556	0.2382	16.2461	0.2210	16.6082	0.2253	13.9039	0.1858	14.0262	0.1883	13.8618	0.1884
558.5057	17.6604	0.2388	16.4565	0.2217	16.4601	0.2258	13.8133	0.1862	14.1043	0.1888	14.2119	0.1888
558.5385	17.7076	0.2394	16.2511	0.2221	16.6763	0.2264	13.9852	0.1867	14.0007	0.1892	13.9247	0.1893
558.5719	17.5829	0.2400	16.2008	0.2228	16.5568	0.2269	13.5884	0.1872	14.1185	0.1897	14.0924	0.1898
558.6052	17.7620	0.2406	16.4589	0.2233	16.7092	0.2275	13.8852	0.1876	14.0103	0.1902	13.8483	0.1902
558.6380	17.7510	0.2412	16.3812	0.2238	16.6813	0.2280	13.7677	0.1881	14.1686	0.1906	14.0340	0.1907
558.6713	17.8968	0.2417	16.5019	0.2244	16.5652	0.2286	13.8304	0.1885	14.1505	0.1911	14.0900	0.1911
558.7041	17.7021	0.2423	16.2547	0.2249	16.8048	0.2291	14.0925	0.1890	14.1530	0.1916	14.1845	0.1916
558.7375	17.6241	0.2429	16.1454	0.2255	16.5939	0.2297	13.8525	0.1895	14.1630	0.1920	14.1883	0.1921
558.7708	17.7041	0.2435	16.4002	0.2260	16.6410	0.2302	14.0539	0.1899	14.1102	0.1925	14.0715	0.1926
558.8036	17.6801	0.2441	16.2756	0.2265	16.7715	0.2308	13.7384	0.1904	14.2439	0.1930	14.2307	0.1930
558.8369	17.7694	0.2447	16.5031	0.2271	16.5268	0.2313	14.0282	0.1908	14.1639	0.1934	13.9207	0.1935
558.8697	17.6710	0.2452	16.1270	0.2276	16.5082	0.2319	14.0128	0.1913	14.2070	0.1939	14.1570	0.1940
558.9030	17.6207	0.2458	16.2443	0.2282	16.6152	0.2324	13.9211	0.1918	14.1334	0.1944	13.9233	0.1944
558.9363	17.6080	0.2464	16.3187	0.2287	16.6041	0.2330	13.9597	0.1922	14.0916	0.1948	14.0440	0.1949
558.9691	17.7353	0.2470	16.2321	0.2292	16.7370	0.2335	13.7716	0.1927	14.2274	0.1953	14.0094	0.1953
559.0025	17.8314	0.2476	16.4544	0.2298	16.5168	0.2341	14.0804	0.1931	14.2272	0.1958	14.1121	0.1958
559.0353	17.6346	0.2482	16.2088	0.2303	16.5805	0.2346	13.6537	0.1936	14.1817	0.1962	14.1540	0.1963
559.0687	17.5359	0.2487	16.1317	0.2309	16.7087	0.2352	13.8048	0.1941	14.1850	0.1967	13.9781	0.1967
559.1020	17.6073	0.2493	16.3597	0.2314	16.5510	0.2357	13.8165	0.1945	13.9870	0.1972	14.0271	0.1972
559.1348	17.7867	0.2499	16.2969	0.2319	16.9219	0.2363	13.8679	0.1950	14.2027	0.1976	13.8780	0.1977
559.1681	17.6923	0.2505	16.4920	0.2325	16.6062	0.2368	13.9971	0.1955	14.1928	0.1981	14.1185	0.1981
559.2013	17.6639	0.2511	16.2386	0.2330	16.6322	0.2374	13.8042	0.1959	14.0984	0.1986	13.8417	0.1986
559.2342	17.7022	0.2517	16.3923	0.2336	16.7166	0.2379	13.8840	0.1963	14.1790	0.1990	14.0721	0.1991
559.2675	17.7311	0.2523	16.3941	0.2341	16.6013	0.2385	13.6719	0.1968	14.1540	0.1995	13.9693	0.1995
559.3003	17.8662	0.2529	16.3675	0.2346	16.7806	0.2390	13.9841	0.1973	14.3259	0.2000	14.1276	0.2000
559.3336	17.7576	0.2535	16.5545	0.2352	16.8294	0.2396	13.9725	0.1977	14.1986	0.2004	14.1966	0.2004
559.3669	17.6483	0.2540	16.3189	0.2357	16.6096	0.2402	13.7684	0.1982	14.1346	0.2009	14.1593	0.2009
559.3997	17.7370	0.2546	16.3343	0.2363	16.7100	0.2407	14.0854	0.1986	14.2710	0.2014	14.2755	0.2014
559.4330	17.7466	0.2552	16.4223	0.2368	16.7154	0.2412	13.9058	0.1991	14.1783	0.2019	14.0611	0.2019
559.4663	17.8279	0.2558	16.4029	0.2374	16.7628	0.2418	13.9030	0.1996	14.1058	0.2023	14.2155	0.2023
559.4991	17.7893	0.2564	16.5718	0.2379	16.9185	0.2424	13.8016	0.2000	13.9861	0.2028	13.9944	0.2028
559.5324	17.7746	0.2570	16.3659	0.2385	16.7752	0.2429	14.0257	0.2005	13.9944	0.2033	14.1536	0.2033
559.5653	17.8691	0.2576	16.3873	0.2390	16.7116	0.2435	13.9708	0.2010	14.2329	0.2037	14.1918	0.2037
559.5987	17.8487	0.2582	16.5419	0.2396	16.8772	0.2440	13.8538	0.2014	14.1708	0.2042	14.1485	0.2042
559.6315	18.0276	0.2588	16.4112	0.2401	16.7612	0.2446	14.1616	0.2019	14.2968	0.2047	14.3219	0.2047
559.6649	17.8559	0.2594	16.5676	0.2406	16.9289	0.2452	13.8973	0.2023	14.2738	0.2051	14.3089	0.2052
559.6982	17.7574	0.2599	16.3623	0.2412	16.9059	0.2457	13.8808	0.2028	14.0196	0.2056	14.1236	0.2056
559.7310	17.8455	0.2605	16.4220	0.2417	16.7360	0.2463	13.9841	0.2033	14.2661	0.2061	14.3135	0.2061
559.7643	17.8239	0.2611	16.5065	0.2423	16.8890	0.2468	14.0721	0.2037	14.2659	0.2065	14.2180	0.2066
559.7976	17.9121	0.2617	16.4598	0.2428	16.8113	0.2474	14.1620	0.2042	14.2192	0.2070	14.4788	0.2071
559.8305	17.9098	0.2623	16.5918	0.2434	16.8113	0.2480	13.8883	0.2047	14.3992	0.2075	14.1925	0.2075
559.8638	17.8790	0.2629	16.5310	0.2439	17.0224	0.2485	14.1446	0.2051	14.1102	0.2080	14.2897	0.2080
559.8966	17.8525	0.2635	16.3708	0.2445	16.7668	0.2491	13.9440	0.2056	14.2872	0.2084	14.2531	0.2085
559.9300	17.8428	0.2641	16.5183	0.2450	16.7013	0.2496	14.0050	0.2061	14.2517	0.2089	14.0864	0.2089
559.9628	17.8818	0.2647	16.4407	0.2455	16.9021	0.2502	14.0003	0.2065	14.2112	0.2094	14.2686	0.2094
559.9961	17.9838	0.2653	16.5388	0.2461	16.7822	0.2507	14.0472	0.2070	14.3473	0.2098	14.1600	0.2099
560.0294	17.7662	0.2659	16.6000	0.2466	16.8362	0.2513	14.2726	0.2075	14.2322	0.2103	14.3943	0.2104
560.0622	17.8038	0.2665	16.3841	0.2472	16.9282	0.2518	13.8019	0.2079	14.2547	0.2108	14.1505	0.2108
560.0955	17.7738	0.2670	16.4539	0.2477	16.7048	0.2524	14.1611	0.2084	14.4074	0.2113	14.2821	0.2113
560.1288	17.8401	0.2676	16.4379	0.2483	16.5982	0.2530	14.1556	0.2089	14.1220	0.2117	14.2949	0.2118
560.1616	17.9429	0.2682	16.4214	0.2488	16.7790	0.2535	13.9632	0.2093	14.2716	0.2122	14.2011	0.2122
560.1949	17.7746	0.2688	16.4560	0.2494	16.7415	0.2541	14.0190	0.2098	14.3075	0.2127	14.3122	0.2127
560.2282	17.7908	0.2694	16.3208	0.2499	16.9394	0.2546	13.9475	0.2102	14.0580	0.2132	14.0227	0.2132
560.2610	17.8228	0.2700	16.4394	0.2505	16.6822	0.2552	13.9935	0.2107	14.3754	0.2136	14.3514	0.2136
560.2944	17.9260	0.2706	16.4090	0.2510	16.6158	0.2557	13.8231	0.2112	14.0028	0.2141	13.9794	0.2141
560.3272	17.9809	0.2712	16.3927	0.2515	16.8248	0.2563	14.0950	0.2116	14.4215	0.2146	14.2577	0.2146
560.3605	17.9364	0.2718	16.6321	0.2521	16.6601	0.2568	14.0949	0.2121	14.2314	0.2150	14.2213	0.2151
560.3938	17.8547	0.2724	16.3477	0.2526	16.8680	0.2574	13.9802	0.2126	14.2001	0.2155	14.1921	0.2155
560.4266	17.7357	0.2730	16.3245	0.2532	16.8883	0.2580	14.0883	0.2130	14.3187	0.2160	14.2090	0.2160
560.4600	17.8521	0.2736	16.4956	0.2537	16.5448	0.2585	13.7865	0.2135	14.0447	0.2165	14.0296	0.2165
560.4928	17.8088	0.2741	16.4820	0.2543	16.7196	0.2590	13.9971	0.2140	14.1986	0.2169	14.3186	0.2169
560.5261	17.8960	0.2747	16.6317	0.2548	16.7566	0.2596	13.9588	0.2144	14.2543	0.2174	14.1141	0.2174
560.5594	17.8517	0.2753	16.4539	0.2554	16.7550	0.2602	14.0880	0.2149	14.0823	0.2178	14.2391	0.2179
560.5923	17.7396	0.2759	16.3690	0.2559	16.8696	0.2607	14.1821	0.2154	14.3432	0.2183	14.1408	0.2183
560.6256	17.7323	0.2765	16.4430	0.2565	16.5958	0.2613	13.9658	0.2158	13.9984	0.2188	14.3237	0.2188
560.6585	17.8446	0.2771	16.4320	0.2570	16.6741	0.2618	13.9534	0.2163	14.0719	0.2193	14.0528	0.2193
560.6918	17.9428	0.2777	16.4797	0.2575	16.7673	0.2624	13.6818	0.2167	14.0943	0.2197	13.9566	0.2198
560.7251	17.7150	0.2783	16.3305	0.2581	16.6540	0.2629	13.9520	0.2172	14.0161	0.2202	14.0022	0.2202
560.7579	17.6529	0.2788	16.3217	0.2586	16.7807	0.2635	14.0137	0.2177	14.1648	0.2206	14.0084	0.2207
560.7913	17.6907	0.2794	16.4755	0.2592	16.7668	0.2640	13.8873	0.2181	14.0020	0.2211	14.2475	0.2211
560.8241	17.7645	0.2800	16.3512	0.2597	16.5565	0.2646	14.0055	0.2186	14.1940	0.2216	13.8966	0.2216
560.8574	17.8378	0.2806	16.5080	0.2602	16.7542	0.2651	13.8865	0.2190	14.0842	0.2220	14.1776	0.2221
560.8907	17.7882	0.2812	16.4765	0.2608	16.6974	0.2657	13.8034	0.2195	14.0716	0.2225	13.8869	0.2225
560.9235	17.7844	0.2818	16.2937	0.2613	16.7053	0.2662	13.8564	0.2199	14.1649	0.2230	14.2011	0.2230
560.9569	17.7483	0.2824	16.4688	0.2619	16.8486	0.2668	14.0499	0.2204	14.0347	0.2235	14.1346	0.2235
560.9897	17.8748	0.2830	16.3411	0.2624	16.5716	0.2674	14.1470	0.2209	14.1397	0.2239	14.0478	0.2239
561.0230	17.9449	0.2836	16.4598	0.2630	16.7016	0.2679	13.8459	0.2213	14.1927	0.2244	14.1275	0.2244
561.0563	17.7246	0.2842	16.3623	0.2635	16.8171	0.2685	13.9585	0.2218	13.9599	0.2249	13.8699	0.2250
561.0891	17.6594	0.2848	16.2443	0.2640	16.7515	0.2690	13.7700	0.2223	14.3186	0.2253	14.2129	0.2253
561.1224	17.6400	0.2853	16.3984	0.2646	16.8585	0.2696	13.9885	0.2227	13.9493	0.2258	13.9629	0.2259
561.1557	17.7403	0.2859	16.2958	0.2651	16.6166	0.2701	13.8441	0.2232	14.1730	0.2263	14.2298	0.2264
561.1885	17.7453	0.2865	16.4056	0.2657	16.5200	0.2707	13.8347	0.2236	14.1430	0.2267	13.8908	0.2268
561.2218	17.7488	0.2871	16.3452	0.2662	16.6936	0.2712	13.9651	0.2241	13.9919	0.2272	14.1740	0.2273
561.2546	17.7367	0.2877	16.1419	0.2667	16.6354	0.2718	13.7743	0.2245	14.2417	0.2277	14.1427	0.2277
561.2879	17.7653	0.2883	16.3098	0.2673	16.7038	0.2723	13.9591	0.2250	13.9334	0.2281	13.9961	0.2282
561.3213	17.7786	0.2888	16.3069	0.2678	16.7806	0.2729	13.7168	0.2255	14.1890	0.2286	14.1039	0.2287
561.3541	17.7182	0.2894	16.4760	0.2684	16.5091	0.2734	13.9131	0.2259	14.1186	0.2291	13.9431	0.2292
561.3874	17.6661	0.2900	16.2537	0.2689	16.7153	0.2740	13.7882	0.2264	13.9810	0.2295	14.1912	0.2296
561.4207	17.6954	0.2906	16.2250	0.2695	16.6606	0.2745	13.8266	0.2269	14.1279	0.2300	14.0313	0.2301
561.4535	17.6495	0.2912	16.3948	0.2700	16.7426	0.2751	13.9541	0.2273	13.8758	0.2304	14.0966	0.2306
561.4869	17.8224	0.2918	16.3461	0.2705	16.8459	0.2756	13.6831	0.2278	14.1285	0.2309	14.1928	0.2310
561.5197	17.7515	0.2924	16.5452	0.2711	16.5821	0.2762	14.0040	0.2282	14.1717	0.2314	14.0680	0.2315
561.5530	17.6547	0.2929	16.1935	0.2716	16.6600	0.2767	13.8082	0.2287	14.0654	0.2319	14.2371	0.2319
561.5858	17.7342	0.2935	16.2679	0.2722	16.7346	0.2773	13.8614	0.2291	14.3660	0.2323	13.8556	0.2324
561.6191	17.7129	0.2941	16.3658	0.2727	16.6135	0.2778	13.8290	0.2296	13.9058	0.2328	14.0150	0.2329
561.6525	17.8696	0.2947	16.3071	0.2732	16.7627	0.2784	13.8916	0.2301	14.1400	0.2333	13.9300	0.2333
561.6853	17.6379	0.2953	16.4699	0.2738	16.5741	0.2790	13.9039	0.2305	14.1002	0.2337	14.0428	0.2338
561.7186	17.6497	0.2959	16.1610	0.2743	16.5915	0.2795	13.8342	0.2310	13.9016	0.2342	14.0815	0.2343
561.7515	17.5580	0.2965	16.2109	0.2748	16.6212	0.2801	14.0152	0.2314	14.3084	0.2346	14.1394	0.2347
561.7848	17.7082	0.2970	16.2803	0.2754	16.5923	0.2806	13.7858	0.2319	13.8316	0.2351	14.0951	0.2352
561.8181	17.7113	0.2976	16.3461	0.2759	16.8780	0.2812	13.8175	0.2323	14.1158	0.2356	13.8801	0.2357
561.8509	17.5780	0.2982	16.4069	0.2765	16.5489	0.2817	13.6503	0.2328	13.9658	0.2360	13.9870	0.2361
561.8842	17.6902	0.2988	16.2305	0.2770	16.5583	0.2823	13.8353	0.2333	13.9707	0.2365	13.9489	0.2366
561.9170	17.7405	0.2994	16.3696	0.2776	16.7339	0.2828	13.8693	0.2337	14.1850	0.2370	14.2378	0.2371
561.9503	17.8214	0.3000	16.3002	0.2781	16.6502	0.2834	13.8280	0.2342	14.0078	0.2374	13.9091	0.2375
561.9837	17.5800	0.3006	16.4611	0.2786	16.7833	0.2839	13.9203	0.2346	14.1290	0.2379	13.9724	0.2380
562.0165	17.5735	0.3011	16.4253	0.2792	16.6056	0.2845	13.8108	0.2351	14.1120	0.2384	13.9618	0.2385
562.0498	17.5846	0.3017	16.2521	0.2797	16.5730	0.2850	13.8042	0.2356	14.0083	0.2389	13.9888	0.2389
562.0826	17.6155	0.3023	16.2979	0.2802	16.6836	0.2856	13.7267	0.2360	14.0950	0.2393	14.0531	0.2394
562.1159	17.7637	0.3029	16.2545	0.2808	16.6317	0.2861	13.8644	0.2365	14.0020	0.2398	14.0511	0.2398
562.1493	17.6404	0.3035	16.3449	0.2813	16.6923	0.2867	13.9487	0.2369	14.1721	0.2402	14.2029	0.2403
562.1821	17.7080	0.3041	16.3626	0.2819	16.6316	0.2872	13.8780	0.2374	14.1389	0.2407	13.9323	0.2408
562.2154	17.7041	0.3047	16.1912	0.2824	16.5840	0.2878	13.9991	0.2379	13.9457	0.2412	14.1938	0.2412
562.2482	17.8272	0.3053	16.3742	0.2829	16.6629	0.2883	13.7526	0.2383	14.1842	0.2416	13.9139	0.2417
562.2816	17.6599	0.3058	16.2515	0.2835	16.5873	0.2889	13.7976	0.2388	13.9418	0.2421	14.0238	0.2422
562.3144	17.5559	0.3064	16.3972	0.2840	16.7265	0.2894	13.9291	0.2392	14.1639	0.2426	13.9903	0.2426
562.3477	17.6843	0.3070	16.3583	0.2846	16.7737	0.2900	13.9693	0.2397	14.1455	0.2430	14.2056	0.2431
562.3810	17.6034	0.3076	16.0953	0.2851	16.4835	0.2905	13.9731	0.2402	14.1296	0.2435	14.1312	0.2436
562.4138	17.6793	0.3082	16.3520	0.2856	16.6214	0.2911	13.7229	0.2406	14.1448	0.2440	14.0251	0.2440
562.4471	17.5366	0.3088	16.2146	0.2862	16.6034	0.2916	13.9717	0.2410	13.9767	0.2444	14.1717	0.2445
562.4804	17.6087	0.3093	16.4164	0.2867	16.5785	0.2922	13.8423	0.2415	14.0904	0.2449	13.9666	0.2450
562.5132	17.6908	0.3099	16.2530	0.2873	16.7063	0.2927	13.7377	0.2420	13.9248	0.2454	14.0495	0.2454
562.5465	17.7967	0.3105	16.2409	0.2878	16.4079	0.2933	13.7093	0.2424	14.0207	0.2458	13.9485	0.2459
562.5793	17.6353	0.3111	16.3360	0.2883	16.5007	0.2938	13.9155	0.2429	14.0841	0.2463	14.1620	0.2464
562.6127	17.5985	0.3117	16.2575	0.2889	16.6719	0.2944	13.8669	0.2434	14.0002	0.2468	13.9861	0.2468
562.6460	17.5676	0.3123	16.5052	0.2894	16.6318	0.2949	13.7747	0.2438	14.1624	0.2472	14.0143	0.2473
562.6788	17.6796	0.3129	16.1951	0.2900	16.8224	0.2955	14.0585	0.2443	14.0095	0.2477	14.1614	0.2477
562.7121	17.6690	0.3134	16.2148	0.2905	16.5544	0.2960	13.7566	0.2447	14.1592	0.2482	14.0785	0.2482
562.7450	17.6142	0.3140	16.4055	0.2910	16.4711	0.2966	13.8391	0.2452	14.1970	0.2486	14.1178	0.2487
562.7783	17.6104	0.3146	16.3062	0.2916	16.7147	0.2971	13.7865	0.2456	13.9541	0.2491	13.9975	0.2492
562.8116	17.6429	0.3152	16.5052	0.2921	16.7154	0.2977	13.9181	0.2461	14.2290	0.2495	14.1774	0.2496
562.8444	17.8138	0.3158	16.2648	0.2927	16.7772	0.2982	13.8613	0.2466	13.8983	0.2500	13.9183	0.2501
562.8777	17.6523	0.3164	16.1505	0.2932	16.6754	0.2988	13.8438	0.2470	14.1379	0.2505	14.0015	0.2505
562.9110	17.6049	0.3169	16.3508	0.2938	16.6009	0.2993	13.9847	0.2476	14.1472	0.2510	13.9441	0.2510
562.9438	17.5885	0.3175	16.2726	0.2943	16.7644	0.2999	13.7352	0.2480	13.9708	0.2514	14.1377	0.2515
562.9771	17.6127	0.3181	16.4300	0.2948	16.6671	0.3004	13.9928	0.2485	14.2679	0.2519	14.0270	0.2519
563.0099	17.6979	0.3187	16.1486	0.2954	16.6934	0.3010	13.8424	0.2489	13.9089	0.2523	14.0036	0.2524
563.0433	17.7266	0.3193	16.2981	0.2959	16.7526	0.3016	13.8687	0.2494	14.1964	0.2528	14.1581	0.2529
563.0761	17.7245	0.3199	16.3329	0.2964	16.6138	0.3021	13.9391	0.2498	14.1732	0.2533	14.0683	0.2533
563.1094	17.7851	0.3205	16.3002	0.2970	16.7466	0.3027	13.8661	0.2502	14.1144	0.2537	14.2145	0.2538
563.1427	17.7845	0.3210	16.5238	0.2975	16.8351	0.3032	14.0080	0.2508	14.2830	0.2542	13.9560	0.2543
563.1755	17.7210	0.3216	16.2024	0.2981	16.7785	0.3038	13.8475	0.2512	14.0674	0.2547	14.2461	0.2547
563.2089	17.6540	0.3222	16.3687	0.2988	16.9135	0.3043	14.0414	0.2517	14.2300	0.2552	14.1118	0.2552
563.2417	17.7254	0.3228	16.3625	0.2992	16.5821	0.3049	13.9238	0.2521	14.2239	0.2556	14.1923	0.2557
563.2751	17.6382	0.3234	16.3948	0.2998	16.7270	0.3054	13.8682	0.2527	14.0178	0.2561	14.1168	0.2561
563.3079	17.7039	0.3240	16.4814	0.3002	16.8258	0.3060	14.0519	0.2530	14.3000	0.2566	13.9668	0.2566
563.3412	17.8064	0.3246	16.2530	0.3009	16.7099	0.3065	13.9350	0.2536	14.0506	0.2570	14.3118	0.2571
563.3745	17.7444	0.3252	16.3932	0.3015	16.8738	0.3071	14.0842	0.2541	14.1683	0.2575	14.0654	0.2576
563.4073	17.7698	0.3257	16.4285	0.3020	16.8682	0.3077	13.7394	0.2545	14.1556	0.2580	14.1386	0.2580
563.4406	17.7643	0.3263	16.3245	0.3025	16.7300	0.3082	13.8664	0.2550	14.0740	0.2584	13.9526	0.2585
563.4735	17.9449	0.3269	16.5235	0.3031	16.8175	0.3088	13.8815	0.2554	14.2314	0.2589	14.1785	0.2590
563.5068	17.8153	0.3275	16.3171	0.3036	16.7543	0.3093	13.9105	0.2559	14.1615	0.2594	14.1144	0.2594
563.5401	17.7203	0.3281	16.3585	0.3042	16.7833	0.3099	14.0797	0.2564	14.2039	0.2599	14.1424	0.2599
563.5729	17.7907	0.3287	16.4474	0.3047	16.9052	0.3104	13.8899	0.2568	14.2382	0.2603	14.1776	0.2604
563.6062	17.7041	0.3293	16.3775	0.3053	16.6082	0.3110	14.0791	0.2573	14.1514	0.2608	14.1262	0.2608
563.6395	17.8181	0.3299	16.6102	0.3058	16.7008	0.3115	13.8280	0.2577	14.2192	0.2613	14.2391	0.2613
563.6723	17.8007	0.3305	16.2728	0.3064	16.8270	0.3121	14.0478	0.2582	14.2381	0.2617	14.0409	0.2618
563.7056	17.7485	0.3310	16.3800	0.3069	16.7533	0.3127	13.9176	0.2587	14.0409	0.2622	14.1868	0.2622
563.7389	17.7481	0.3316	16.4457	0.3074	16.8474	0.3132	13.8970	0.2591	14.2643	0.2627	13.9702	0.2627
563.7718	17.8235	0.3322	16.4439	0.3080	16.8146	0.3138	14.0321	0.2596	14.0003	0.2631	14.2762	0.2632
563.8051	17.9634	0.3328	16.6044	0.3085	16.7391	0.3143	14.0506	0.2601	14.3800	0.2636	14.2500	0.2636
563.8378	17.8116	0.3334	16.3016	0.3091	16.8716	0.3149	14.0730	0.2605	14.2237	0.2641	14.1709	0.2641
563.8712	17.6861	0.3340	16.3647	0.3096	16.7126	0.3155	13.7858	0.2610	14.0859	0.2646	14.1294	0.2646
563.9044	17.7436	0.3346	16.3977	0.3102	16.7730	0.3160	13.8593	0.2615	14.1549	0.2650	13.9949	0.2650
563.9372	17.7725	0.3352	16.4439	0.3107	16.9241	0.3165	13.9517	0.2619	13.9894	0.2655	14.2400	0.2655
563.9705	17.8683	0.3358	16.5329	0.3113	16.7063	0.3171	13.9125	0.2624	14.1787	0.2660	14.0389	0.2660
564.0039	17.7942	0.3363	16.3379	0.3118	16.6614	0.3177	13.9756	0.2628	14.2060	0.2664	14.2373	0.2665
564.0367	17.7979	0.3369	16.3434	0.3123	16.8477	0.3182	13.8389	0.2633	14.0094	0.2669	14.1253	0.2669
564.0701	17.8952	0.3375	16.5683	0.3129	16.7734	0.3188	13.9167	0.2637	14.3202	0.2673	14.0885	0.2674
564.1029	17.8446	0.3381	16.4348	0.3134	16.8138	0.3193	13.7895	0.2642	13.9467	0.2678	14.0723	0.2678
564.1362	17.8715	0.3387	16.5398	0.3140	16.7625	0.3199	13.9560	0.2647	14.1325	0.2683	14.0913	0.2683
564.1690	17.8381	0.3393	16.4530	0.3145	16.6525	0.3204	14.1623	0.2651	14.2161	0.2687	14.2949	0.2688
564.2023	17.7460	0.3399	16.2814	0.3151	16.8153	0.3210	13.9316	0.2656	14.1500	0.2692	14.0922	0.2692
564.2357	17.7069	0.3405	16.4727	0.3156	16.8432	0.3215	14.1279	0.2661	14.4017	0.2697	14.1943	0.2697
564.2685	17.7295	0.3411	16.3430	0.3161	16.8293	0.3221	13.7257	0.2665	14.0219	0.2702	13.9133	0.2702
564.3018	17.8425	0.3417	16.4998	0.3167	16.9164	0.3227	14.0311	0.2670	14.2992	0.2706	14.1351	0.2706
564.3346	17.9192	0.3422	16.4246	0.3172	16.6545	0.3232	13.9952	0.2674	14.2037	0.2711	14.0690	0.2711
564.3679	17.7453	0.3428	16.2927	0.3178	16.7053	0.3238	13.8579	0.2679	14.1604	0.2716	14.2041	0.2716
564.4013	17.8116	0.3434	16.4919	0.3183	16.8640	0.3243	13.9344	0.2684	14.3026	0.2721	14.1818	0.2721
564.4341	17.8654	0.3440	16.4160	0.3189	16.6986	0.3249	13.8568	0.2688	14.0901	0.2725	14.0683	0.2725
564.4674	17.9171	0.3446	16.4945	0.3194	16.9155	0.3255	14.2197	0.2693	14.3419	0.2730	14.3491	0.2730
564.5007	17.9799	0.3452	16.4723	0.3200	16.8133	0.3260	13.9532	0.2697	14.4153	0.2735	14.2043	0.2735
564.5335	17.8451	0.3458	16.3202	0.3205	16.6931	0.3266	13.7987	0.2702	14.1379	0.2740	14.1447	0.2739
564.5669	17.8698	0.3464	16.5648	0.3210	16.7300	0.3271	13.8498	0.2707	14.2822	0.2744	14.0137	0.2744
564.5997	17.9364	0.3470	16.4492	0.3216	16.8585	0.3277	13.9191	0.2711	14.1564	0.2749	14.2082	0.2749
564.6330	17.9397	0.3476	16.5377	0.3221	16.7506	0.3282	14.1751	0.2716	14.3006	0.2753	14.1910	0.2753
564.6659	17.9715	0.3482	16.7274	0.3227	17.0049	0.3288	13.8554	0.2721	14.4008	0.2758	14.2085	0.2758
564.6992	17.9278	0.3488	16.4176	0.3232	16.8279	0.3293	14.0102	0.2725	14.1834	0.2763	14.3601	0.2763
564.7325	17.9420	0.3494	16.4322	0.3238	16.7637	0.3299	13.9578	0.2730	14.2833	0.2768	14.0184	0.2767
564.7653	17.9142	0.3500	16.6049	0.3243	16.9475	0.3305	14.1123	0.2735	14.3432	0.2772	14.2999	0.2772
564.7986	17.9810	0.3505	16.5775	0.3249	16.7946	0.3310	14.0884	0.2739	14.2153	0.2777	14.0799	0.2777
564.8314	18.0298	0.3512	16.6969	0.3254	16.8786	0.3316	13.8706	0.2744	14.4689	0.2782	14.2795	0.2782
564.8648	18.0718	0.3517	16.4900	0.3260	17.0259	0.3321	13.9834	0.2748	14.0884	0.2787	14.2508	0.2786
564.8976	17.9137	0.3523	16.3832	0.3265	16.7919	0.3327	13.9089	0.2753	14.2759	0.2791	14.1574	0.2791
564.9309	17.8140	0.3529	16.5578	0.3271	16.7719	0.3332	14.0594	0.2758	14.2592	0.2796	14.2358	0.2796
564.9642	17.7748	0.3535	16.4015	0.3276	16.9099	0.3338	14.0034	0.2762	14.1345	0.2801	14.0805	0.2800
564.9970	17.8491	0.3541	16.5561	0.3281	16.7043	0.3344	13.8840	0.2767	14.2797	0.2806	14.1875	0.2805
565.0303	17.7810	0.3547	16.4328	0.3287	16.8981	0.3349	14.0755	0.2772	13.9634	0.2810	13.8983	0.2810
565.0636	17.8487	0.3553	16.2905	0.3292	16.7265	0.3355	13.8240	0.2776	14.2386	0.2815	14.0728	0.2814
565.0964	17.7951	0.3559	16.4493	0.3298	16.6100	0.3360	13.9234	0.2781	14.1422	0.2819	14.0305	0.2819
565.1298	17.7802	0.3565	16.3098	0.3303	16.8215	0.3366	13.9163	0.2785	14.1043	0.2824	14.0406	0.2824
565.1626	17.8691	0.3570	16.4036	0.3309	16.6479	0.3371	13.9269	0.2790	14.2281	0.2829	14.0303	0.2828
565.1959	17.8761	0.3577	16.4862	0.3314	16.7368	0.3377	13.9632	0.2794	14.0531	0.2834	14.0677	0.2833
565.2293	17.8701	0.3582	16.2787	0.3320	16.8648	0.3382	13.8300	0.2799	14.2136	0.2838	14.1632	0.2838
565.2620	17.7354	0.3588	16.3487	0.3325	16.5707	0.3388	14.1371	0.2804	14.2881	0.2843	14.1092	0.2842
565.2954	17.6852	0.3594	16.1889	0.3330	16.6394	0.3393	13.8413	0.2808	14.1236	0.2848	14.2606	0.2847
565.3282	17.7266	0.3600	16.3767	0.3336	16.7471	0.3399	13.9542	0.2813	14.1661	0.2852	13.8992	0.2852
565.3615	17.7882	0.3606	16.4452	0.3341	16.6927	0.3404	13.8482	0.2818	13.9852	0.2857	14.0887	0.2856
565.3948	17.7840	0.3612	16.2463	0.3347	16.7645	0.3410	13.9254	0.2822	14.1099	0.2862	13.9944	0.2862
565.4277	17.7588	0.3618	16.3904	0.3352	16.5654	0.3416	14.1024	0.2827	14.1439	0.2866	14.1038	0.2865
565.4610	17.7840	0.3624	16.3137	0.3357	16.8586	0.3421	13.8142	0.2831	14.0715	0.2871	14.1698	0.2872
565.4938	17.7050	0.3629	16.4648	0.3363	16.7584	0.3427	14.0278	0.2836	14.1799	0.2876	14.1065	0.2876
565.5271	17.9335	0.3635	16.4145	0.3368	16.7086	0.3432	13.7882	0.2841	14.1068	0.2880	14.2426	0.2881
565.5604	17.8739	0.3641	16.3077	0.3374	16.8397	0.3438	13.8740	0.2845	14.1570	0.2885	13.9817	0.2885
565.5932	17.8652	0.3647	16.5202	0.3379	16.8286	0.3443	13.8408	0.2850	14.1018	0.2890	14.1900	0.2890
565.6266	17.7559	0.3653	16.4308	0.3385	16.8598	0.3449	13.9096	0.2854	14.1540	0.2894	13.9682	0.2895
565.6593	17.8276	0.3659	16.4994	0.3390	16.8236	0.3454	14.1740	0.2859	14.2652	0.2899	14.2181	0.2899
565.6927	17.7588	0.3665	16.5599	0.3396	16.5041	0.3460	13.9935	0.2864	14.2314	0.2904	14.1335	0.2904
565.7260	17.8462	0.3671	16.2851	0.3401	16.7980	0.3465	13.9459	0.2868	14.1406	0.2909	14.1204	0.2909
565.7588	17.8278	0.3677	16.4519	0.3406	16.8230	0.3471	13.8082	0.2873	14.2956	0.2913	14.0951	0.2913
565.7921	17.8425	0.3683	16.4077	0.3412	16.5027	0.3476	13.9383	0.2878	13.9870	0.2918	14.0792	0.2918
565.8249	17.7927	0.3689	16.4382	0.3417	16.5827	0.3482	14.0615	0.2882	14.2700	0.2923	14.2172	0.2923
565.8582	17.8934	0.3694	16.6021	0.3423	16.6434	0.3488	13.9944	0.2887	14.0588	0.2927	13.9940	0.2927
565.8915	17.8258	0.3700	16.1996	0.3428	16.7251	0.3493	14.1544	0.2891	14.1779	0.2932	14.2497	0.2932
565.9244	17.7116	0.3706	16.2880	0.3433	16.8103	0.3498	13.8023	0.2896	14.2526	0.2937	13.8184	0.2937
565.9577	17.7069	0.3712	16.3948	0.3439	16.4606	0.3504	13.8348	0.2901	14.0205	0.2941	14.0708	0.2941
565.9906	17.6740	0.3718	16.3778	0.3444	16.8453	0.3510	13.7920	0.2905	14.0790	0.2946	13.9769	0.2946
566.0239	17.7653	0.3724	16.4760	0.3450	16.7477	0.3515	13.9566	0.2910	14.0740	0.2951	14.0457	0.2951
566.0572	17.8194	0.3730	16.2602	0.3455	16.5418	0.3520	14.1783	0.2915	14.0951	0.2955	14.1759	0.2955
566.0900	17.7537	0.3735	16.3913	0.3461	16.7287	0.3526	13.8950	0.2919	14.2780	0.2960	14.0194	0.2960
566.1234	17.7558	0.3741	16.3738	0.3466	16.7383	0.3532	13.9443	0.2924	13.9676	0.2965	14.0254	0.2965
566.1562	17.8106	0.3747	16.4645	0.3472	16.8515	0.3537	13.6759	0.2928	14.1185	0.2969	14.0683	0.2969
566.1895	17.8029	0.3753	16.5153	0.3477	16.8735	0.3543	13.9489	0.2933	14.1767	0.2974	14.2472	0.2974
566.2228	17.7446	0.3759	16.2756	0.3482	16.5197	0.3548	13.9475	0.2938	14.0563	0.2979	13.9300	0.2979
566.2557	17.6234	0.3765	16.2941	0.3488	16.7522	0.3554	13.8291	0.2942	14.3007	0.2983	14.1231	0.2983
566.2890	17.6635	0.3771	16.2456	0.3493	16.7151	0.3559	14.0371	0.2947	13.9844	0.2988	14.0833	0.2988
566.3218	17.7002	0.3777	16.3895	0.3499	16.5514	0.3565	13.8798	0.2951	14.1947	0.2993	14.1439	0.2993
566.3551	17.7166	0.3782	16.3977	0.3504	16.7283	0.3570	14.0145	0.2956	14.1396	0.2997	14.0707	0.2997
566.3880	17.6724	0.3788	16.2008	0.3509	16.6163	0.3576	13.6818	0.2960	14.0289	0.3002	13.9262	0.3002
566.4213	17.7609	0.3794	16.4546	0.3515	16.7397	0.3581	13.8091	0.2965	14.1817	0.3007	13.9944	0.3006
566.4547	17.6776	0.3800	16.1413	0.3520	16.7608	0.3587	13.8280	0.2970	13.9769	0.3011	13.9968	0.3011
566.4875	17.7730	0.3806	16.4411	0.3526	16.5062	0.3593	14.0315	0.2974	14.0708	0.3016	14.3089	0.3016
566.5208	17.8078	0.3812	16.4042	0.3531	16.8085	0.3598	14.0300	0.2979	14.1868	0.3021	13.9650	0.3020
566.5536	17.6994	0.3818	16.2341	0.3537	16.7526	0.3604	13.8423	0.2984	14.0047	0.3025	14.0461	0.3025
566.5869	17.6193	0.3824	16.5264	0.3542	16.5463	0.3609	14.1018	0.2988	14.1791	0.3030	13.9350	0.3030
566.6198	17.7106	0.3830	16.1198	0.3547	16.7488	0.3615	13.7192	0.2993	13.8274	0.3035	13.9977	0.3034
566.6531	17.6875	0.3835	16.4928	0.3553	16.5633	0.3620	13.9373	0.2998	14.0265	0.3039	14.0255	0.3039
566.6864	17.7405	0.3841	16.3261	0.3558	16.7848	0.3626	13.8846	0.3002	14.0631	0.3044	13.9579	0.3044
566.7192	17.6618	0.3847	16.2909	0.3564	16.7143	0.3631	13.9557	0.3007	14.0061	0.3049	14.2020	0.3048
566.7525	17.6942	0.3853	16.4411	0.3569	16.3884	0.3637	13.9323	0.3011	14.2475	0.3053	14.0661	0.3053
566.7858	17.7596	0.3859	16.0300	0.3574	16.8209	0.3642	13.7568	0.3016	13.9593	0.3058	14.0319	0.3058
566.8186	17.8378	0.3865	16.4652	0.3580	16.7901	0.3648	13.9259	0.3020	14.1114	0.3063	13.7867	0.3062
566.8520	17.8257	0.3871	16.3190	0.3585	16.7113	0.3653	13.7783	0.3025	14.0129	0.3067	13.9705	0.3067
566.8848	17.6904	0.3876	16.4367	0.3590	16.8377	0.3659	13.8769	0.3029	14.0688	0.3072	13.9574	0.3071
566.9181	17.6834	0.3882	16.4592	0.3596	16.6073	0.3664	13.9484	0.3034	14.2635	0.3077	14.0772	0.3076
566.9514	17.7494	0.3888	16.1404	0.3601	16.8176	0.3670	13.9597	0.3039	14.1667	0.3081	14.1570	0.3081
566.9842	17.8411	0.3894	16.5561	0.3607	16.7798	0.3675	14.1046	0.3043	14.2354	0.3086	14.0695	0.3085
567.0176	17.7109	0.3900	16.3476	0.3612	16.4710	0.3681	13.7618	0.3048	14.1453	0.3091	14.0128	0.3090
567.0509	17.7053	0.3906	16.4095	0.3618	16.8495	0.3686	13.8792	0.3053	14.0840	0.3095	14.0168	0.3095
567.0837	17.6965	0.3912	16.4956	0.3623	16.7833	0.3692	13.7973	0.3057	14.1961	0.3100	14.1396	0.3099
567.1170	17.6748	0.3918	16.2079	0.3629	16.6141	0.3698	13.9871	0.3062	14.0153	0.3105	13.9197	0.3104
567.1498	17.8682	0.3923	16.5279	0.3634	16.7300	0.3703	14.0456	0.3066	14.1108	0.3109	14.1505	0.3109
567.1832	17.6573	0.3929	16.3109	0.3639	16.5562	0.3709	13.8541	0.3071	14.1479	0.3114	13.9016	0.3113
567.2160	17.6395	0.3935	16.4140	0.3645	16.9223	0.3714	14.0066	0.3076	14.0745	0.3119	13.9978	0.3118
567.2493	17.7521	0.3941	16.5521	0.3650	16.8834	0.3720	13.8165	0.3080	14.2753	0.3123	13.9534	0.3123
567.2826	17.7475	0.3947	16.2439	0.3656	16.4530	0.3725	13.8101	0.3085	14.0245	0.3128	13.9888	0.3127
567.3155	17.8528	0.3953	16.5463	0.3661	16.8807	0.3731	13.8282	0.3090	14.2198	0.3133	14.1649	0.3132
567.3488	17.8217	0.3959	16.5079	0.3667	16.8443	0.3736	13.9484	0.3094	14.2096	0.3137	14.1515	0.3137
567.3816	17.8698	0.3965	16.3649	0.3672	16.7008	0.3742	14.0898	0.3099	14.1550	0.3142	14.2349	0.3141
567.4149	17.8635	0.3971	16.5891	0.3677	16.8332	0.3748	13.8117	0.3103	14.2652	0.3147	13.9762	0.3146
567.4482	17.8458	0.3976	16.3171	0.3683	16.7258	0.3753	13.8961	0.3108	14.0270	0.3152	14.1453	0.3151
567.4811	17.9997	0.3982	16.5839	0.3689	16.9244	0.3759	13.8597	0.3113	14.1953	0.3156	13.9359	0.3155
567.5144	17.7868	0.3988	16.5837	0.3694	16.8973	0.3764	14.0261	0.3117	14.2407	0.3161	14.2469	0.3160
567.5472	17.8175	0.3994	16.3144	0.3699	16.6774	0.3770	13.8217	0.3122	14.1320	0.3166	14.1194	0.3165
567.5805	17.7170	0.4000	16.4784	0.3705	16.9621	0.3775	13.8706	0.3126	14.3678	0.3170	14.0999	0.3169
567.6139	17.8287	0.4006	16.3107	0.3710	16.7963	0.3781	14.1824	0.3131	13.9226	0.3175	14.1572	0.3174
567.6467	17.8523	0.4012	16.4348	0.3716	16.4972	0.3786	13.8840	0.3135	14.2419	0.3180	13.9849	0.3179
567.6800	17.7677	0.4018	16.4674	0.3721	16.9359	0.3792	13.9750	0.3140	14.2400	0.3184	14.1818	0.3183
567.7128	17.7800	0.4024	16.2339	0.3727	16.8249	0.3798	13.8224	0.3145	14.1362	0.3189	14.0169	0.3188
567.7461	17.7295	0.4029	16.5193	0.3732	16.6615	0.3803	14.1255	0.3149	14.3568	0.3194	14.1989	0.3193
567.7790	17.7945	0.4035	16.3831	0.3737	16.9251	0.3809	14.0405	0.3154	14.0378	0.3198	13.9593	0.3197
567.8123	17.9712	0.4041	16.4258	0.3743	16.7415	0.3814	13.9199	0.3159	14.2191	0.3203	14.0371	0.3202
567.8456	17.8635	0.4047	16.5400	0.3748	16.7889	0.3820	13.9458	0.3163	14.2053	0.3208	14.0137	0.3206
567.8784	17.7681	0.4053	16.2922	0.3754	16.8820	0.3825	13.9091	0.3168	14.1557	0.3212	13.9895	0.3211
567.9117	17.8455	0.4059	16.6533	0.3759	16.6627	0.3831	14.1304	0.3172	14.3161	0.3217	14.1411	0.3216
567.9450	17.7701	0.4065	16.4012	0.3766	16.9341	0.3836	13.7815	0.3177	14.1481	0.3222	14.0462	0.3221
567.9779	17.8975	0.4071	16.3379	0.3770	16.8248	0.3842	14.0543	0.3182	14.2784	0.3227	14.4092	0.3225
568.0113	17.9614	0.4077	16.4847	0.3777	16.5338	0.3848	14.0724	0.3186	14.3610	0.3231	13.9852	0.3230
568.0441	17.8911	0.4083	16.3269	0.3781	17.0099	0.3853	14.0153	0.3191	14.1608	0.3236	14.0964	0.3235
568.0774	17.8311	0.4089	16.5285	0.3788	16.8474	0.3859	14.0925	0.3196	14.2719	0.3241	13.9083	0.3239
568.1107	17.8370	0.4094	16.4457	0.3793	16.5372	0.3864	13.8249	0.3200	14.0732	0.3246	14.1319	0.3244
568.1435	17.8679	0.4100	16.2702	0.3798	16.8362	0.3870	14.0094	0.3205	14.2162	0.3250	14.0839	0.3249
568.1769	17.9676	0.4106	16.4771	0.3804	16.7100	0.3875	14.1111	0.3210	14.3101	0.3255	14.0518	0.3253
568.2097	17.7927	0.4112	16.3495	0.3809	16.7650	0.3881	13.9023	0.3214	14.0480	0.3260	14.2189	0.3258
568.2430	17.8732	0.4118	16.5603	0.3815	16.8808	0.3886	14.0036	0.3219	14.2404	0.3265	13.9824	0.3262
568.2758	17.8946	0.4124	16.4907	0.3820	16.7217	0.3892	13.8150	0.3223	14.1539	0.3269	14.2651	0.3267
568.3091	17.8329	0.4130	16.2826	0.3826	16.8203	0.3898	14.0589	0.3228	14.0944	0.3274	14.0427	0.3272
568.3420	17.8840	0.4136	16.5127	0.3831	16.8769	0.3903	13.9300	0.3233	14.3271	0.3278	14.1817	0.3277
568.3753	17.9371	0.4142	16.4101	0.3836	16.5557	0.3909	14.1153	0.3237	14.1514	0.3283	14.1774	0.3281
568.4086	17.8991	0.4148	16.5710	0.3842	16.9345	0.3914	14.1024	0.3242	14.3207	0.3288	14.1619	0.3286
568.4414	17.9601	0.4154	16.5710	0.3847	16.9021	0.3920	13.9526	0.3247	14.2416	0.3293	14.1438	0.3291
568.4747	17.9782	0.4160	16.4591	0.3853	16.5827	0.3925	14.1099	0.3251	14.1589	0.3297	14.1492	0.3295
568.5080	17.9723	0.4166	16.6402	0.3859	16.8822	0.3931	13.9715	0.3256	14.4187	0.3302	14.3033	0.3300
568.5408	18.0699	0.4172	16.3994	0.3864	16.8556	0.3936	14.1570	0.3261	14.1286	0.3307	14.1955	0.3305
568.5742	17.9610	0.4178	16.4356	0.3869	16.7802	0.3942	14.2046	0.3265	14.3659	0.3311	14.1487	0.3309
568.6070	17.8490	0.4184	16.4860	0.3875	16.9485	0.3948	14.0929	0.3270	14.2501	0.3316	13.9783	0.3314
568.6403	17.8598	0.4189	16.4872	0.3880	16.7763	0.3953	14.2767	0.3275	14.2822	0.3321	14.2322	0.3319
568.6736	17.8891	0.4195	16.6487	0.3886	16.7925	0.3959	14.0538	0.3280	14.2801	0.3326	14.1641	0.3323
568.7064	17.8460	0.4201	16.3596	0.3891	16.9414	0.3965	14.1396	0.3284	14.2448	0.3330	14.0212	0.3328
568.7397	17.9551	0.4207	16.4268	0.3897	16.6655	0.3970	14.0782	0.3289	14.2001	0.3335	14.2560	0.3333
568.7730	17.8898	0.4213	16.5174	0.3902	16.9521	0.3976	14.0420	0.3293	14.3507	0.3340	14.0950	0.3337
568.8058	17.8984	0.4219	16.5193	0.3908	16.8973	0.3981	14.1635	0.3298	14.0070	0.3345	14.2796	0.3342
568.8391	17.9233	0.4225	16.6528	0.3913	16.7202	0.3987	14.0084	0.3303	14.2756	0.3349	14.0060	0.3347
568.8719	17.9319	0.4231	16.5137	0.3919	17.0532	0.3992	14.0892	0.3307	14.2721	0.3354	14.2047	0.3352
568.9053	18.1010	0.4237	16.4378	0.3924	16.9207	0.3998	14.0196	0.3312	14.2489	0.3359	14.1759	0.3356
568.9386	17.8843	0.4243	16.6614	0.3930	16.6102	0.4003	14.1447	0.3317	14.5178	0.3363	14.2277	0.3361
568.9715	17.9243	0.4249	16.5165	0.3935	16.9422	0.4009	14.2877	0.3322	14.1750	0.3368	14.4391	0.3366
569.0047	17.8739	0.4255	16.6094	0.3940	16.9084	0.4015	14.0848	0.3326	14.3148	0.3373	14.2582	0.3371
569.0376	17.8731	0.4260	16.6202	0.3946	16.6526	0.4020	14.0480	0.3331	14.3151	0.3377	14.2876	0.3375
569.0709	17.8490	0.4267	16.4222	0.3951	16.9490	0.4026	13.8087	0.3335	14.0369	0.3382	13.9843	0.3380
569.1037	17.9982	0.4273	16.5402	0.3957	16.8313	0.4031	14.0041	0.3340	14.3262	0.3387	14.1996	0.3385
569.1370	17.8919	0.4278	16.5343	0.3962	16.6981	0.4037	14.2010	0.3345	14.1405	0.3392	14.2459	0.3389
569.1703	17.8626	0.4284	16.5382	0.3968	17.0079	0.4042	14.1336	0.3349	14.2839	0.3397	14.2735	0.3394
569.2032	17.9127	0.4290	16.6743	0.3973	16.8111	0.4048	14.2306	0.3354	14.4331	0.3401	14.2112	0.3399
569.2366	17.9326	0.4296	16.3767	0.3979	16.8348	0.4054	13.7771	0.3359	14.1068	0.3406	14.0770	0.3403
569.2694	18.0448	0.4302	16.4144	0.3984	16.9267	0.4059	13.9507	0.3363	14.2419	0.3411	14.2789	0.3408
569.3027	17.9233	0.4308	16.5648	0.3990	16.7930	0.4065	14.1010	0.3368	14.2863	0.3415	14.1346	0.3413
569.3360	17.7543	0.4314	16.5597	0.3995	16.8903	0.4070	14.0560	0.3372	14.2258	0.3420	14.2384	0.3417
569.3688	17.8740	0.4320	16.5660	0.4001	16.9485	0.4076	14.2063	0.3377	14.5251	0.3425	14.1540	0.3422
569.4022	17.8588	0.4326	16.4479	0.4006	16.6001	0.4082	13.9298	0.3382	14.1203	0.3429	14.1373	0.3427
569.4350	17.8704	0.4332	16.4106	0.4012	16.9253	0.4087	13.9774	0.3387	14.3567	0.3434	14.2652	0.3432
569.4683	17.9671	0.4338	16.5856	0.4017	16.9004	0.4093	13.9722	0.3391	14.2482	0.3439	14.1512	0.3436
569.5016	17.7784	0.4344	16.4731	0.4022	16.5378	0.4098	13.9262	0.3396	14.1286	0.3444	14.2011	0.3441
569.5345	17.8760	0.4349	16.5172	0.4028	16.8842	0.4104	13.8852	0.3400	14.3745	0.3448	13.9273	0.3446
569.5678	17.8173	0.4355	16.5847	0.4033	16.8185	0.4109	13.8314	0.3405	14.1540	0.3453	14.2651	0.3450
569.6006	17.8517	0.4361	16.3241	0.4039	16.5901	0.4115	14.1970	0.3410	14.3459	0.3458	14.0153	0.3455
569.6340	17.9492	0.4367	16.4820	0.4044	16.7673	0.4120	13.9522	0.3414	14.3778	0.3463	14.1536	0.3461
569.6668	17.8217	0.4373	16.3781	0.4050	16.6615	0.4126	13.9539	0.3419	14.1396	0.3467	14.0966	0.3464
569.7001	17.7289	0.4379	16.3773	0.4055	16.7542	0.4131	13.7634	0.3423	14.1330	0.3472	13.8669	0.3470
569.7335	17.7483	0.4385	16.5153	0.4061	16.8075	0.4137	13.6835	0.3428	14.1068	0.3477	13.9535	0.3475
569.7663	17.7715	0.4391	16.2797	0.4066	16.5213	0.4143	14.0917	0.3432	14.0317	0.3481	13.9780	0.3479
569.7996	17.8718	0.4397	16.3559	0.4072	16.9217	0.4148	13.8540	0.3437	14.3226	0.3486	14.2509	0.3484
569.8324	17.6926	0.4402	16.2904	0.4077	16.8618	0.4153	14.0296	0.3442	14.0799	0.3491	13.8780	0.3488
569.8658	17.7934	0.4408	16.3097	0.4082	16.5407	0.4159	13.7001	0.3446	14.2354	0.3495	14.1142	0.3493
569.8986	17.6486	0.4414	16.5463	0.4088	16.7966	0.4165	13.7991	0.3451	14.0346	0.3500	13.9099	0.3498
569.9320	17.7845	0.4420	16.1682	0.4093	16.6761	0.4170	13.8672	0.3456	14.0247	0.3505	14.0588	0.3503
569.9648	17.9266	0.4426	16.4095	0.4099	16.7432	0.4176	13.9192	0.3460	14.2070	0.3509	14.0831	0.3507
569.9981	17.6824	0.4432	16.3137	0.4104	16.8562	0.4181	14.0206	0.3465	14.0414	0.3514	14.0691	0.3512
570.0314	17.6262	0.4438	16.3561	0.4109	16.4908	0.4187	13.8647	0.3469	14.1546	0.3519	14.1321	0.3517
570.0643	17.7465	0.4444	16.4009	0.4115	16.8161	0.4192	13.9800	0.3474	14.1161	0.3523	14.0580	0.3521
570.0976	17.6667	0.4450	16.2002	0.4120	16.7498	0.4198	13.6886	0.3478	14.0453	0.3528	14.1117	0.3526
570.1304	17.8030	0.4456	16.3923	0.4126	16.5358	0.4204	13.9016	0.3483	14.2454	0.3533	14.0041	0.3530
570.1637	17.7517	0.4461	16.3060	0.4131	16.8624	0.4209	14.0513	0.3488	14.0179	0.3537	14.1572	0.3535
570.1970	17.7325	0.4467	16.3724	0.4136	16.6526	0.4216	13.9369	0.3492	14.1300	0.3542	13.8824	0.3540
570.2298	17.7814	0.4473	16.3758	0.4142	16.7030	0.4220	13.9962	0.3497	14.1379	0.3547	14.2103	0.3544
570.2631	17.8368	0.4479	16.1719	0.4147	16.7798	0.4227	13.8766	0.3502	14.0197	0.3551	14.0246	0.3549
570.2964	17.7361	0.4485	16.3525	0.4153	16.5338	0.4232	13.9209	0.3506	14.2329	0.3556	13.9875	0.3554
570.3292	17.6141	0.4491	16.3167	0.4158	16.8320	0.4237	13.7933	0.3511	13.9769	0.3561	14.1161	0.3558
570.3626	17.6484	0.4496	16.4336	0.4163	16.6997	0.4244	14.0524	0.3515	14.2032	0.3565	14.1070	0.3563
570.3954	17.6888	0.4502	16.3349	0.4169	16.4410	0.4248	14.0623	0.3520	14.0791	0.3570	14.0967	0.3568
570.4287	17.7047	0.4508	16.2008	0.4174	16.7468	0.4254	13.7999	0.3525	14.0911	0.3575	13.9283	0.3573
570.4621	17.7893	0.4514	16.4098	0.4180	16.5864	0.4260	13.9732	0.3530	14.1674	0.3579	14.1931	0.3577
570.4949	17.7094	0.4520	16.3075	0.4185	16.7418	0.4266	13.7796	0.3534	14.0070	0.3584	13.8675	0.3582
570.5281	17.6599	0.4526	16.4516	0.4190	16.8025	0.4271	13.9317	0.3540	14.2177	0.3589	14.1989	0.3586
570.5610	17.6906	0.4532	16.3207	0.4196	16.4378	0.4275	13.8609	0.3543	14.1648	0.3593	13.9634	0.3591
570.5943	17.8394	0.4538	16.1991	0.4201	16.7341	0.4282	13.9447	0.3549	14.1554	0.3598	14.1376	0.3596
570.6276	17.6508	0.4544	16.4245	0.4207	16.7024	0.4288	13.9741	0.3553	14.1674	0.3604	14.0632	0.3600
570.6604	17.6327	0.4549	16.2601	0.4212	16.5310	0.4293	13.8342	0.3558	13.9418	0.3607	13.9699	0.3605
570.6937	17.5881	0.4555	16.4462	0.4218	16.7193	0.4299	13.9943	0.3563	14.1400	0.3612	14.0959	0.3610
570.7266	17.6710	0.4561	16.2954	0.4223	16.4930	0.4304	13.7851	0.3566	14.0925	0.3617	13.9666	0.3614
570.7599	17.8186	0.4567	16.1992	0.4228	16.8050	0.4310	13.8933	0.3572	13.9753	0.3622	14.2985	0.3619
570.7932	17.7151	0.4573	16.4763	0.4234	16.7543	0.4315	13.9039	0.3576	14.4342	0.3627	14.1226	0.3624
570.8260	17.7023	0.4579	16.3252	0.4239	16.4902	0.4321	14.0023	0.3581	14.0321	0.3631	14.2150	0.3628
570.8593	17.6937	0.4585	16.5178	0.4244	16.7038	0.4326	13.9910	0.3585	14.2596	0.3635	14.0011	0.3633
570.8921	17.8755	0.4590	16.2534	0.4250	16.5676	0.4332	13.7179	0.3590	14.0009	0.3640	14.0963	0.3638
570.9254	17.8796	0.4596	16.2179	0.4255	16.6557	0.4337	13.8781	0.3595	14.0552	0.3645	14.1497	0.3642
570.9587	17.6333	0.4602	16.4219	0.4261	16.5690	0.4343	13.7592	0.3599	14.2825	0.3651	14.0454	0.3647
570.9915	17.6834	0.4608	16.3823	0.4266	16.4516	0.4348	14.0094	0.3604	14.1010	0.3654	14.1934	0.3652
571.0248	17.6495	0.4614	16.5297	0.4272	16.9030	0.4354	13.9810	0.3609	14.2646	0.3659	13.9902	0.3656
571.0581	17.8368	0.4620	16.2908	0.4277	16.6596	0.4359	13.8448	0.3613	14.1343	0.3665	14.1621	0.3661
571.0910	17.6698	0.4626	16.3056	0.4282	16.4964	0.4365	13.8231	0.3618	14.1054	0.3668	13.7810	0.3666
571.1243	17.7145	0.4631	16.4945	0.4288	16.6788	0.4370	13.6450	0.3622	14.2269	0.3674	14.0594	0.3670
571.1571	17.6682	0.4637	16.3932	0.4293	16.5730	0.4376	13.9697	0.3627	14.0079	0.3678	14.1060	0.3675
571.1904	17.7706	0.4643	16.4825	0.4299	16.7227	0.4381	13.7494	0.3631	14.2253	0.3684	14.1163	0.3679
571.2232	17.8841	0.4649	16.3052	0.4304	16.7344	0.4387	13.8906	0.3636	14.1630	0.3687	14.1002	0.3684
571.2566	17.6965	0.4655	16.3352	0.4310	16.7345	0.4392	13.8082	0.3641	14.1320	0.3692	14.0910	0.3689
571.2899	17.7267	0.4661	16.4818	0.4315	16.8502	0.4398	13.8695	0.3645	14.1869	0.3698	14.1994	0.3694
571.3227	17.7351	0.4667	16.3738	0.4320	16.4704	0.4404	13.8936	0.3650	14.0270	0.3701	13.9759	0.3698
571.3560	17.6638	0.4673	16.4777	0.4326	16.6656	0.4409	13.8624	0.3654	14.2318	0.3707	14.2355	0.3703
571.3888	17.7215	0.4678	16.2770	0.4331	16.8422	0.4415	14.1042	0.3659	14.1961	0.3710	14.0096	0.3708
571.4221	17.6341	0.4684	16.2621	0.4337	16.5950	0.4420	13.8247	0.3664	14.1218	0.3715	14.1562	0.3712
571.4555	17.6454	0.4690	16.3421	0.4342	16.8425	0.4426	13.9375	0.3668	14.3151	0.3721	14.0623	0.3717
571.4883	17.6665	0.4696	16.2430	0.4348	16.5199	0.4431	13.8608	0.3673	13.9451	0.3724	14.0344	0.3721
571.5216	17.7002	0.4702	16.5269	0.4353	16.5345	0.4436	13.7202	0.3677	14.0850	0.3730	13.8883	0.3726
571.5543	17.7295	0.4708	16.2773	0.4358	16.5870	0.4442	13.9023	0.3682	14.0506	0.3734	13.9629	0.3731
571.5877	17.5588	0.4713	16.1971	0.4364	16.5599	0.4447	13.8017	0.3686	14.0790	0.3740	14.2088	0.3735
571.6211	17.5725	0.4719	16.3451	0.4369	16.7162	0.4453	14.1944	0.3691	14.3267	0.3744	14.0227	0.3740
571.6539	17.5955	0.4725	16.2638	0.4375	16.4688	0.4458	13.7957	0.3696	13.9861	0.3748	14.1822	0.3745
571.6872	17.7424	0.4731	16.3815	0.4380	16.5193	0.4464	13.7865	0.3700	14.1060	0.3754	13.8015	0.3749
571.7199	17.5878	0.4737	16.0828	0.4385	16.6023	0.4469	13.7685	0.3705	14.0011	0.3757	13.9135	0.3754
571.7533	17.6946	0.4743	16.1199	0.4391	16.5432	0.4475	13.7635	0.3710	13.9074	0.3763	13.8280	0.3759
571.7862	17.6795	0.4749	16.3132	0.4396	16.7473	0.4481	14.0285	0.3714	14.1890	0.3766	14.0111	0.3763
571.8195	17.7177	0.4754	16.3052	0.4401	16.5058	0.4486	13.8216	0.3719	14.0229	0.3772	14.0170	0.3768
571.8528	17.6504	0.4760	16.4026	0.4407	16.5158	0.4491	13.8623	0.3723	14.1209	0.3777	13.9009	0.3772
571.8856	17.5239	0.4766	16.1646	0.4412	16.6229	0.4497	13.6531	0.3728	13.8299	0.3781	13.9576	0.3777
571.9190	17.5423	0.4772	16.2756	0.4418	16.5882	0.4502	13.6996	0.3732	13.9764	0.3786	13.8896	0.3782
571.9518	17.6370	0.4778	16.2865	0.4423	16.8593	0.4508	13.7747	0.3737	14.1043	0.3790	14.0472	0.3786
571.9852	17.6979	0.4784	16.3281	0.4428	16.4897	0.4513	13.8682	0.3741	13.9810	0.3795	14.0336	0.3791
572.0180	17.5957	0.4789	16.3464	0.4434	16.4639	0.4519	13.8901	0.3746	14.2518	0.3799	14.2705	0.3795
572.0513	17.5630	0.4795	16.1996	0.4439	16.6346	0.4524	13.8574	0.3751	13.9226	0.3805	13.8758	0.3800
572.0846	17.6054	0.4801	16.3071	0.4445	16.5923	0.4530	13.8539	0.3755	13.9670	0.3809	14.0440	0.3805
572.1174	17.8007	0.4807	16.2652	0.4450	16.8056	0.4535	13.6682	0.3760	13.9802	0.3814	13.8300	0.3810
572.1508	17.5359	0.4813	16.3282	0.4456	16.5097	0.4541	13.7742	0.3765	13.9266	0.3819	13.9801	0.3814
572.1836	17.5197	0.4819	16.3542	0.4461	16.5452	0.4546	13.7449	0.3769	14.1851	0.3823	14.0050	0.3819
572.2169	17.5668	0.4824	16.0996	0.4466	16.6942	0.4552	13.9179	0.3773	13.9133	0.3828	14.1004	0.3823
572.2502	17.5871	0.4830	16.3115	0.4471	16.6453	0.4557	13.9384	0.3778	14.1906	0.3833	14.1522	0.3828
572.2830	17.6954	0.4836	16.2877	0.4477	16.8058	0.4563	13.6605	0.3783	14.0513	0.3837	13.9776	0.3833
572.3164	17.5850	0.4842	16.5019	0.4482	16.6365	0.4569	13.7776	0.3787	13.8345	0.3842	14.0363	0.3837
572.3492	17.7242	0.4848	16.2581	0.4488	16.5755	0.4574	13.6846	0.3792	14.2272	0.3846	13.8048	0.3842
572.3826	17.6956	0.4854	16.2304	0.4493	16.7483	0.4580	13.9409	0.3796	13.9300	0.3851	14.0942	0.3846
572.4154	17.8976	0.4860	16.3893	0.4499	16.6689	0.4585	13.7434	0.3801	14.2349	0.3856	13.8975	0.3851
572.4487	17.7417	0.4865	16.2792	0.4504	16.7659	0.4591	13.9682	0.3805	14.2491	0.3861	14.1148	0.3856
572.4820	17.7332	0.4871	16.5020	0.4509	16.8604	0.4596	13.9860	0.3810	14.1046	0.3865	14.0271	0.3861
572.5148	17.7013	0.4877	16.2890	0.4515	16.6041	0.4602	13.8579	0.3815	14.3949	0.3870	13.9988	0.3865
572.5482	17.6906	0.4883	16.2862	0.4520	16.7030	0.4607	13.8896	0.3819	13.9218	0.3875	14.0834	0.3870
572.5810	17.8883	0.4889	16.4956	0.4526	16.7874	0.4613	13.8737	0.3824	14.2634	0.3879	14.0695	0.3874
572.6144	17.7702	0.4895	16.3687	0.4531	16.7411	0.4618	14.0305	0.3829	14.2341	0.3884	14.2121	0.3879
572.6472	17.7236	0.4901	16.4912	0.4536	16.9471	0.4624	13.7350	0.3833	14.1689	0.3889	14.0166	0.3884
572.6806	17.7324	0.4907	16.2628	0.4542	16.5862	0.4629	13.9647	0.3838	14.2180	0.3893	14.2126	0.3888
572.7133	17.8417	0.4913	16.1996	0.4547	16.5600	0.4635	13.9357	0.3842	13.9693	0.3898	13.8966	0.3893
572.7466	17.8596	0.4918	16.4429	0.4553	16.7477	0.4640	13.8579	0.3847	14.1650	0.3903	14.0435	0.3898
572.7800	17.7567	0.4924	16.3650	0.4560	16.6157	0.4646	14.0784	0.3852	14.1682	0.3907	14.0648	0.3902
572.8128	17.6796	0.4930	16.5524	0.4564	16.7793	0.4652	13.8683	0.3856	14.0159	0.3912	14.1070	0.3907
572.8462	17.6919	0.4936	16.1558	0.4570	16.7085	0.4657	13.9769	0.3861	14.2551	0.3917	14.1750	0.3912
572.8790	17.6945	0.4942	16.2143	0.4574	16.5444	0.4662	13.7984	0.3865	14.0162	0.3921	14.0708	0.3916
572.9123	17.8030	0.4948	16.4462	0.4581	16.7209	0.4668	13.9136	0.3870	14.1132	0.3926	14.1834	0.3921
572.9456	17.7373	0.4954	16.3226	0.4587	16.5619	0.4673	13.9204	0.3875	14.1170	0.3931	13.9300	0.3926
572.9785	17.6626	0.4960	16.4642	0.4592	16.7564	0.4679	13.7719	0.3879	13.9815	0.3935	14.1211	0.3930
573.0118	17.7662	0.4965	16.1837	0.4597	16.7770	0.4685	14.0310	0.3884	14.2857	0.3940	13.9748	0.3935
573.0446	17.7888	0.4971	16.2908	0.4603	16.5751	0.4690	13.8323	0.3888	13.8970	0.3945	14.1492	0.3940
573.0779	17.8192	0.4977	16.3749	0.4608	16.6240	0.4696	13.9018	0.3893	14.1830	0.3949	13.9894	0.3944
573.1107	17.6896	0.4983	16.3043	0.4614	16.6596	0.4701	13.7948	0.3897	14.1295	0.3954	13.9717	0.3949
573.1440	17.6673	0.4989	16.5201	0.4619	16.7078	0.4707	13.8669	0.3902	14.0959	0.3959	14.0606	0.3954
573.1774	17.7877	0.4995	16.1872	0.4624	16.8941	0.4712	13.9005	0.3907	14.1010	0.3963	14.0885	0.3958
573.2102	17.6804	0.5001	16.3079	0.4630	16.6221	0.4718	13.8158	0.3911	13.9700	0.3968	14.1824	0.3963
573.2435	17.8112	0.5006	16.3597	0.4635	16.6273	0.4723	14.0156	0.3916	14.2530	0.3973	14.0375	0.3968
573.2763	17.7864	0.5012	16.2952	0.4641	16.7901	0.4729	13.8970	0.3921	14.2916	0.3977	14.1690	0.3972
573.3096	17.7725	0.5018	16.5419	0.4646	16.6434	0.4734	13.9675	0.3925	14.0459	0.3982	13.8658	0.3977
573.3429	17.8360	0.5024	16.2186	0.4651	16.9052	0.4740	13.8323	0.3930	14.2399	0.3987	14.1052	0.3982
573.3757	17.9171	0.5030	16.2682	0.4657	16.8477	0.4746	13.7624	0.3934	13.9902	0.3992	13.9661	0.3986
573.4090	17.8625	0.5036	16.4271	0.4662	16.6281	0.4751	13.9662	0.3939	14.1850	0.3996	14.0467	0.3991
573.4424	17.7117	0.5042	16.3749	0.4668	16.7709	0.4757	13.9476	0.3944	14.1708	0.4001	14.0246	0.3996
573.4752	17.7116	0.5048	16.5055	0.4673	16.6651	0.4762	14.0984	0.3948	14.0069	0.4006	14.0542	0.4000
573.5085	17.7200	0.5054	16.2088	0.4678	16.7604	0.4768	13.7566	0.3953	14.1266	0.4010	14.0993	0.4005
573.5413	17.8411	0.5060	16.3079	0.4684	16.8704	0.4773	13.8714	0.3957	13.9091	0.4015	13.9824	0.4009
573.5746	17.7498	0.5065	16.3781	0.4689	16.5379	0.4779	13.9467	0.3962	14.1718	0.4019	14.1437	0.4014
573.6080	17.7031	0.5071	16.3502	0.4695	16.6193	0.4784	14.0048	0.3967	14.1321	0.4024	13.9009	0.4019
573.6409	17.7840	0.5077	16.5347	0.4700	16.7781	0.4790	14.0678	0.3971	14.1102	0.4029	14.0378	0.4023
573.6742	17.8178	0.5083	16.2702	0.4706	16.6490	0.4795	13.8491	0.3976	14.0505	0.4034	13.9318	0.4028
573.7070	17.9361	0.5089	16.3967	0.4711	16.8981	0.4801	14.0515	0.3981	13.9418	0.4038	14.0619	0.4033
573.7403	17.7446	0.5095	16.4194	0.4717	16.4978	0.4806	13.6902	0.3985	13.9842	0.4043	14.0936	0.4037
573.7731	17.7367	0.5101	16.4484	0.4722	16.6064	0.4812	13.9526	0.3990	14.1927	0.4048	14.0468	0.4042
573.8064	17.7588	0.5107	16.5956	0.4727	16.7573	0.4817	13.9226	0.3994	14.1035	0.4052	14.2290	0.4047
573.8397	17.7359	0.5112	16.2708	0.4733	16.6809	0.4823	14.0423	0.3999	14.1437	0.4057	14.0098	0.4051
573.8725	17.8497	0.5119	16.2121	0.4738	16.7715	0.4829	14.1160	0.4003	13.9911	0.4062	14.0983	0.4056
573.9058	17.7847	0.5124	16.4237	0.4744	16.7613	0.4834	13.8167	0.4008	14.0146	0.4066	13.9935	0.4061
573.9391	17.7702	0.5130	16.4430	0.4749	16.6233	0.4839	13.9685	0.4013	14.2323	0.4071	14.1803	0.4067
573.9719	17.8483	0.5136	16.5888	0.4754	16.7586	0.4845	13.8936	0.4017	14.1665	0.4076	14.0087	0.4070
574.0052	17.8200	0.5142	16.2708	0.4760	16.6908	0.4851	14.0518	0.4022	14.1834	0.4081	14.1044	0.4076
574.0381	17.9781	0.5148	16.3417	0.4765	16.7785	0.4856	14.0513	0.4027	14.1067	0.4085	14.1590	0.4079
574.0714	17.8635	0.5154	16.5548	0.4771	16.9122	0.4862	13.8640	0.4031	13.9747	0.4090	14.0200	0.4085
574.1042	17.7166	0.5160	16.4185	0.4776	16.6690	0.4867	14.1446	0.4036	14.2045	0.4094	14.1724	0.4090
574.1375	17.8035	0.5166	16.5442	0.4782	16.7360	0.4873	13.7638	0.4041	14.1127	0.4099	14.0102	0.4094
574.1709	17.7068	0.5171	16.4548	0.4787	16.8719	0.4878	14.0007	0.4045	14.0994	0.4104	14.1826	0.4099
574.2037	17.8890	0.5178	16.3794	0.4793	16.7344	0.4884	14.1572	0.4050	14.1654	0.4109	13.9609	0.4104
574.2371	17.9466	0.5183	16.5617	0.4798	16.9491	0.4890	13.9917	0.4054	14.0310	0.4113	14.2469	0.4109
574.2699	17.8989	0.5189	16.4649	0.4804	16.8746	0.4895	14.1180	0.4059	14.4159	0.4118	14.1658	0.4113
574.3032	17.9134	0.5195	16.5844	0.4809	16.6898	0.4901	13.9342	0.4064	14.2948	0.4123	14.0932	0.4118
574.3365	17.9289	0.5201	16.5844	0.4814	16.9145	0.4906	14.0313	0.4069	14.1601	0.4127	14.2003	0.4123
574.3693	17.9221	0.5207	16.3363	0.4820	16.8221	0.4912	14.0784	0.4073	14.3582	0.4132	14.2308	0.4127
574.4027	17.9283	0.5213	16.4775	0.4825	16.8383	0.4917	14.1823	0.4078	14.2455	0.4137	14.3346	0.4132
574.4355	18.0180	0.5219	16.4027	0.4831	17.0554	0.4923	14.2568	0.4082	14.4222	0.4142	14.0757	0.4137
574.4688	17.8825	0.5225	16.4415	0.4836	16.7286	0.4929	14.0169	0.4087	14.3624	0.4146	14.3037	0.4141
574.5021	17.8658	0.5231	16.6147	0.4842	16.6770	0.4934	14.0673	0.4092	14.0975	0.4151	14.1665	0.4146
574.5349	17.8824	0.5237	16.2483	0.4847	16.8859	0.4940	13.8964	0.4097	14.2316	0.4156	14.1912	0.4151
574.5683	17.7970	0.5243	16.4021	0.4853	16.6969	0.4945	14.1243	0.4101	14.2646	0.4160	14.2830	0.4155
574.6011	17.8462	0.5249	16.4785	0.4858	16.8474	0.4951	14.2077	0.4106	14.2949	0.4165	14.1957	0.4160
574.6344	17.8639	0.5254	16.4354	0.4864	16.9358	0.4956	14.1203	0.4111	14.3724	0.4170	14.3619	0.4165
574.6672	17.9271	0.5261	16.5527	0.4869	16.7023	0.4962	14.1490	0.4115	14.2500	0.4175	14.1235	0.4169
574.7006	17.8201	0.5266	16.3407	0.4874	16.8391	0.4968	13.7750	0.4120	14.1538	0.4179	14.1740	0.4174
574.7339	17.9003	0.5272	16.4890	0.4880	16.8932	0.4973	13.9875	0.4124	14.2455	0.4184	13.9911	0.4179
574.7667	17.9917	0.5278	16.5493	0.4885	16.8578	0.4979	14.0305	0.4129	14.2312	0.4189	14.2328	0.4184
574.8000	17.9450	0.5284	16.5039	0.4891	16.9790	0.4984	14.1447	0.4134	14.4568	0.4194	14.2516	0.4189
574.8328	17.8405	0.5290	16.6849	0.4896	16.8085	0.4990	14.2203	0.4138	14.1290	0.4198	14.2341	0.4193
574.8661	17.9307	0.5296	16.4727	0.4902	16.6882	0.4995	14.0934	0.4143	14.2749	0.4203	14.3949	0.4198
574.8995	17.9090	0.5302	16.4496	0.4907	16.9459	0.5001	14.0229	0.4148	14.4317	0.4208	14.1266	0.4203
574.9323	17.8051	0.5308	16.5327	0.4913	16.7227	0.5007	14.0100	0.4152	14.2252	0.4212	14.2708	0.4207
574.9656	17.9587	0.5314	16.4441	0.4918	16.8494	0.5012	14.0657	0.4157	14.2468	0.4217	14.0129	0.4212
574.9984	17.8186	0.5320	16.6327	0.4924	16.9219	0.5018	14.1548	0.4162	14.2549	0.4222	14.2262	0.4217
575.0317	17.8409	0.5326	16.5545	0.4929	16.6628	0.5023	13.8990	0.4166	14.2548	0.4227	14.2169	0.4221
575.0651	17.8295	0.5331	16.3927	0.4935	16.7016	0.5029	14.1439	0.4171	14.3264	0.4231	14.1358	0.4226
575.0979	17.8750	0.5337	16.5221	0.4940	16.7904	0.5034	13.7766	0.4176	13.9469	0.4236	14.1768	0.4231
575.1312	17.9822	0.5343	16.4853	0.4945	16.6930	0.5040	13.9520	0.4180	14.1691	0.4241	14.0162	0.4235
575.1640	17.9184	0.5349	16.5323	0.4951	16.8063	0.5046	14.0834	0.4185	14.1586	0.4245	14.3023	0.4240
575.1973	17.7653	0.5355	16.5636	0.4956	16.9011	0.5051	14.0094	0.4189	14.2467	0.4250	14.0439	0.4245
575.2306	17.8523	0.5361	16.2403	0.4962	16.7092	0.5057	14.1233	0.4194	14.3841	0.4255	14.3051	0.4249
575.2634	17.7946	0.5367	16.4548	0.4967	16.7952	0.5062	13.8964	0.4199	13.8737	0.4259	14.0497	0.4254
575.2967	17.8246	0.5373	16.4801	0.4973	16.7725	0.5068	13.8345	0.4203	14.1292	0.4264	13.9124	0.4259
575.3301	17.8710	0.5379	16.3930	0.4978	16.7418	0.5073	14.1796	0.4208	14.1426	0.4269	13.9776	0.4263
575.3628	17.8147	0.5385	16.5582	0.4984	16.9031	0.5079	14.0296	0.4213	14.1312	0.4273	14.0423	0.4268
575.3961	17.7839	0.5391	16.2076	0.4989	16.5965	0.5084	13.9946	0.4217	14.3054	0.4278	14.2484	0.4273
575.4294	17.7804	0.5396	16.2962	0.4994	16.6407	0.5090	13.8983	0.4222	13.9981	0.4283	13.9405	0.4277
575.4623	17.7751	0.5402	16.4332	0.5000	16.8103	0.5095	13.8618	0.4226	14.1799	0.4288	14.0892	0.4282
575.4956	17.8664	0.5408	16.3205	0.5005	16.7063	0.5101	13.9602	0.4231	14.2017	0.4292	13.8634	0.4286
575.5284	17.7129	0.5414	16.5145	0.5011	16.7861	0.5106	13.7494	0.4235	14.1111	0.4297	14.0582	0.4291
575.5617	17.7353	0.5420	16.3252	0.5016	16.7286	0.5112	13.9953	0.4240	14.2877	0.4302	13.9317	0.4296
575.5950	17.7380	0.5426	16.2598	0.5021	16.6017	0.5118	13.7251	0.4245	13.9185	0.4306	14.0723	0.4301
575.6278	17.7331	0.5432	16.4520	0.5027	16.8019	0.5123	13.9145	0.4249	14.1999	0.4311	14.2248	0.4305
575.6612	17.7614	0.5438	16.3477	0.5032	16.6675	0.5129	13.8749	0.4254	14.1651	0.4316	13.9541	0.4310
575.6940	17.7437	0.5444	16.5602	0.5038	16.7123	0.5134	13.8683	0.4259	14.1143	0.4320	14.1304	0.4315
575.7273	17.7317	0.5449	16.1917	0.5043	16.8070	0.5140	13.9666	0.4263	14.2530	0.4325	13.9081	0.4319
575.7601	17.7154	0.5455	16.2743	0.5049	16.5462	0.5145	13.7469	0.4268	13.9518	0.4330	14.1505	0.4324
575.7935	17.7353	0.5461	16.2616	0.5054	16.5592	0.5151	14.0112	0.4272	14.1510	0.4334	13.8833	0.4328
575.8268	17.6946	0.5467	16.2520	0.5059	16.6010	0.5156	13.7210	0.4277	14.1711	0.4339	14.0245	0.4333
575.8596	17.5551	0.5473	16.4729	0.5065	16.6056	0.5162	13.9054	0.4281	13.9944	0.4344	14.0414	0.4338
575.8930	17.5219	0.5479	16.0747	0.5070	16.6517	0.5167	13.7710	0.4286	14.0970	0.4348	13.9782	0.4342
575.9258	17.5622	0.5485	16.1925	0.5076	16.4249	0.5173	13.6483	0.4291	13.8277	0.4353	13.9582	0.4347
575.9592	17.6395	0.5490	16.2251	0.5081	16.4615	0.5178	13.9597	0.4295	14.0506	0.4357	13.9199	0.4352
575.9920	17.5475	0.5496	16.2615	0.5086	16.6150	0.5184	13.5992	0.4300	14.0394	0.4362	14.0470	0.4356
576.0253	17.6573	0.5502	16.2463	0.5092	16.5398	0.5189	13.9718	0.4304	13.9725	0.4367	13.8603	0.4361
576.0586	17.6890	0.5508	16.1797	0.5097	16.7418	0.5194	13.5828	0.4309	14.0762	0.4371	14.1085	0.4365
576.0914	17.8373	0.5514	16.2421	0.5102	16.4365	0.5200	13.9409	0.4313	13.8945	0.4376	13.7998	0.4370
576.1248	17.6531	0.5520	16.1807	0.5108	16.5489	0.5205	13.6888	0.4318	14.0036	0.4381	14.0429	0.4375
576.1576	17.5595	0.5525	16.3803	0.5113	16.5666	0.5211	13.8831	0.4323	13.9413	0.4385	13.8150	0.4379
576.1909	17.4083	0.5531	16.1267	0.5119	16.4676	0.5216	13.7784	0.4327	13.9388	0.4390	13.9307	0.4384
576.2237	17.5864	0.5537	16.1419	0.5124	16.6421	0.5222	13.7217	0.4332	14.0606	0.4395	13.8234	0.4388
576.2570	17.7010	0.5543	16.2701	0.5129	16.4079	0.5227	13.8748	0.4336	13.8961	0.4399	13.9827	0.4393
576.2904	17.6632	0.5549	16.2024	0.5135	16.5587	0.5233	13.7104	0.4341	14.0325	0.4404	13.9769	0.4398
576.3232	17.6006	0.5554	16.4398	0.5140	16.5638	0.5238	13.8950	0.4345	13.8500	0.4408	13.9458	0.4402
576.3565	17.6674	0.5560	16.1284	0.5145	16.6152	0.5244	13.7080	0.4350	14.0603	0.4413	14.0916	0.4407
576.3898	17.7845	0.5566	16.1871	0.5151	16.7134	0.5249	13.9288	0.4355	14.1430	0.4418	13.9743	0.4411
576.4227	17.6862	0.5572	16.2515	0.5156	16.4249	0.5255	13.8084	0.4359	14.0250	0.4422	14.1026	0.4416
576.4560	17.6042	0.5578	16.2641	0.5161	16.5544	0.5260	13.7415	0.4364	14.1736	0.4427	13.8624	0.4421
576.4888	17.6692	0.5584	16.4992	0.5167	16.6395	0.5266	13.9075	0.4368	14.0219	0.4432	14.1440	0.4425
576.5221	17.6707	0.5590	16.1764	0.5172	16.5993	0.5271	13.6285	0.4373	14.1479	0.4436	13.8599	0.4430
576.5549	17.7401	0.5595	16.2944	0.5178	16.7383	0.5277	13.9851	0.4377	14.1296	0.4441	14.0664	0.4435
576.5882	17.6475	0.5601	16.3383	0.5183	16.5151	0.5282	13.7201	0.4382	14.0715	0.4446	13.9735	0.4439
576.6216	17.7663	0.5607	16.3335	0.5189	16.5102	0.5288	13.9793	0.4386	14.2923	0.4450	13.8546	0.4444
576.6544	17.7172	0.5613	16.4920	0.5194	16.7085	0.5293	14.0288	0.4391	13.9946	0.4455	14.0506	0.4449
576.6877	17.8217	0.5619	16.1355	0.5199	16.6736	0.5299	13.9100	0.4396	14.0958	0.4460	13.9541	0.4453
576.7210	17.7738	0.5625	16.3623	0.5205	16.8231	0.5304	13.9167	0.4400	14.1036	0.4465	14.1203	0.4458
576.7538	17.6801	0.5631	16.3344	0.5210	16.7045	0.5310	13.6731	0.4405	14.0589	0.4469	13.9312	0.4462
576.7870	17.7113	0.5637	16.4570	0.5216	16.5084	0.5315	13.9133	0.4409	14.1711	0.4474	13.9752	0.4467
576.8203	17.6410	0.5643	16.4425	0.5221	16.7667	0.5321	13.7193	0.4414	13.9841	0.4478	14.0238	0.4472
576.8532	17.7524	0.5648	16.2652	0.5226	16.6783	0.5327	13.9775	0.4419	14.2490	0.4483	13.9333	0.4477
576.8865	17.7669	0.5654	16.3741	0.5232	16.7655	0.5332	14.0926	0.4423	14.3446	0.4488	14.4227	0.4481
576.9193	17.7530	0.5660	16.3149	0.5237	16.8443	0.5338	13.9746	0.4428	14.2501	0.4493	13.9338	0.4486
576.9526	17.8165	0.5666	16.4285	0.5243	16.5972	0.5343	14.0455	0.4433	14.1947	0.4497	14.1658	0.4491
576.9859	17.7267	0.5672	16.5372	0.5248	16.7930	0.5349	13.7518	0.4437	13.9453	0.4502	13.8789	0.4495
577.0187	17.8430	0.5678	16.2493	0.5253	16.7126	0.5354	14.0010	0.4442	14.1745	0.4507	14.1177	0.4500
577.0520	17.8380	0.5684	16.4112	0.5259	16.7244	0.5360	13.9033	0.4446	14.3119	0.4511	14.1868	0.4505
577.0853	17.6063	0.5690	16.4352	0.5264	16.9345	0.5365	14.0395	0.4451	14.1554	0.4516	14.0848	0.4509
577.1181	17.7474	0.5696	16.4469	0.5270	16.6801	0.5371	13.9376	0.4456	14.2439	0.4521	14.1849	0.4514
577.1514	17.7295	0.5701	16.5592	0.5275	16.7316	0.5376	13.7806	0.4460	14.0200	0.4525	13.9300	0.4519
577.1842	17.8147	0.5707	16.3108	0.5281	16.8227	0.5382	14.1570	0.4465	14.1854	0.4530	14.2500	0.4523
577.2175	17.7530	0.5713	16.4076	0.5286	16.5929	0.5387	13.8754	0.4470	14.2888	0.4535	13.9035	0.4528
577.2509	17.7794	0.5719	16.3926	0.5292	16.8154	0.5393	14.1554	0.4474	14.1556	0.4540	14.3210	0.4533
577.2837	17.7445	0.5725	16.4266	0.5297	16.7514	0.5399	14.0521	0.4479	14.2314	0.4544	14.1356	0.4537
577.3171	17.8152	0.5731	16.5626	0.5302	16.5628	0.5404	13.8423	0.4483	14.0554	0.4549	14.1412	0.4542
577.3499	17.9250	0.5737	16.2692	0.5308	16.7350	0.5410	13.9513	0.4488	14.0644	0.4553	14.0372	0.4546
577.3832	17.7956	0.5743	16.3343	0.5313	16.6479	0.5415	13.8441	0.4493	14.1589	0.4558	14.0646	0.4551
577.4165	17.6790	0.5748	16.4559	0.5319	16.7383	0.5421	14.1682	0.4497	14.0660	0.4563	14.1676	0.4556
577.4493	17.6815	0.5754	16.3639	0.5324	16.8390	0.5426	13.7710	0.4502	14.1388	0.4568	14.0777	0.4561
577.4826	17.7107	0.5760	16.5501	0.5330	16.5579	0.5432	13.9642	0.4506	14.0850	0.4572	14.2326	0.4565
577.5159	17.8339	0.5766	16.1881	0.5336	16.6498	0.5437	13.8575	0.4511	14.1078	0.4577	13.9434	0.4570
577.5487	17.7564	0.5772	16.2618	0.5340	16.8120	0.5443	13.8380	0.4516	14.2025	0.4581	14.0505	0.4575
577.5820	17.6696	0.5778	16.3940	0.5347	16.6892	0.5448	13.9902	0.4520	14.0975	0.4586	13.9376	0.4579
577.6149	17.8207	0.5784	16.4166	0.5351	16.8933	0.5454	13.8858	0.4525	14.1479	0.4591	14.1312	0.4584
577.6482	17.8867	0.5790	16.5674	0.5358	16.7957	0.5460	14.0137	0.4530	14.1419	0.4596	14.0683	0.4588
577.6810	17.9152	0.5796	16.2204	0.5362	16.5793	0.5465	13.7005	0.4534	14.1352	0.4600	13.9743	0.4593
577.7143	17.7530	0.5801	16.3352	0.5369	16.8344	0.5471	14.0678	0.4539	14.2730	0.4605	14.1396	0.4598
577.7477	17.6889	0.5807	16.4746	0.5374	16.7043	0.5476	13.9777	0.4543	14.0719	0.4610	14.0788	0.4602
577.7806	17.7286	0.5813	16.3959	0.5380	16.8111	0.5482	13.8796	0.4548	14.1691	0.4614	14.2603	0.4607
577.8138	17.7737	0.5819	16.6218	0.5385	16.9820	0.5487	14.1514	0.4554	14.1566	0.4619	13.9478	0.4612
577.8466	17.8296	0.5825	16.2931	0.5391	16.6476	0.5493	13.7395	0.4557	14.1386	0.4624	14.1489	0.4616
577.8800	17.8544	0.5831	16.3115	0.5396	16.7092	0.5498	14.0791	0.4562	14.3452	0.4628	14.0289	0.4621
577.9133	17.7616	0.5837	16.4882	0.5402	16.8439	0.5504	13.9708	0.4568	14.0355	0.4633	14.2848	0.4626
577.9462	17.7680	0.5843	16.4764	0.5407	16.7688	0.5510	13.9810	0.4572	14.1936	0.4638	14.1931	0.4631
577.9795	17.7228	0.5848	16.5806	0.5413	16.8416	0.5515	14.0497	0.4577	14.1797	0.4642	14.0823	0.4635
578.0123	17.8867	0.5855	16.3043	0.5418	16.7468	0.5521	13.8725	0.4581	14.1362	0.4647	14.1435	0.4640
578.0456	17.7748	0.5860	16.2943	0.5423	16.6635	0.5526	14.0707	0.4586	14.4143	0.4652	13.9736	0.4644
578.0789	17.6925	0.5866	16.4348	0.5429	16.8109	0.5532	13.8041	0.4591	13.9762	0.4656	14.2606	0.4650
578.1118	17.6711	0.5872	16.3741	0.5434	16.8051	0.5537	13.9955	0.4595	14.2279	0.4661	14.0556	0.4654
578.1451	17.7059	0.5878	16.4890	0.5440	16.8252	0.5543	13.9183	0.4600	14.1632	0.4666	14.2088	0.4660
578.1779	17.8189	0.5884	16.4348	0.5445	16.9011	0.5548	13.8802	0.4605	14.1080	0.4671	14.0452	0.4663
578.2112	17.8181	0.5890	16.2782	0.5451	16.6597	0.5554	14.0596	0.4609	14.3461	0.4675	13.9978	0.4669
578.2441	17.8139	0.5896	16.4824	0.5456	16.7237	0.5560	13.9176	0.4614	14.1536	0.4680	14.2027	0.4673
578.2774	17.7481	0.5901	16.3625	0.5461	16.8630	0.5565	14.0120	0.4618	14.2475	0.4685	14.0285	0.4678
578.3107	17.7974	0.5907	16.5045	0.5467	16.7712	0.5571	14.1135	0.4623	14.2595	0.4689	14.3570	0.4683
578.3434	17.8877	0.5913	16.4056	0.5472	16.8753	0.5576	14.0474	0.4628	14.1494	0.4694	13.9181	0.4688
578.3768	17.8607	0.5919	16.2884	0.5478	16.7259	0.5582	13.9249	0.4632	14.2170	0.4699	14.2762	0.4692
578.4101	17.7259	0.5925	16.5495	0.5483	16.6103	0.5587	13.8603	0.4637	14.0455	0.4703	14.1229	0.4697
578.4430	17.7021	0.5931	16.3968	0.5489	16.8221	0.5593	14.1110	0.4642	14.1433	0.4708	14.1885	0.4702
578.4763	17.7436	0.5937	16.5037	0.5494	16.7258	0.5598	13.9725	0.4646	14.2485	0.4713	14.2090	0.4706
578.5091	17.8182	0.5943	16.5282	0.5499	16.7948	0.5604	13.9943	0.4651	14.0894	0.4718	14.0783	0.4711
578.5425	17.7691	0.5949	16.3103	0.5505	16.9219	0.5610	14.0678	0.4656	14.2366	0.4722	14.2699	0.4716
578.5753	17.7475	0.5955	16.4239	0.5510	16.6157	0.5615	13.9363	0.4660	14.0353	0.4727	14.1613	0.4721
578.6086	17.8147	0.5960	16.3152	0.5516	16.6498	0.5621	13.9921	0.4665	14.1587	0.4732	14.1072	0.4725
578.6419	17.8003	0.5966	16.3918	0.5521	16.8248	0.5626	13.8940	0.4669	14.1204	0.4736	14.0730	0.4730
578.6747	17.8855	0.5972	16.4890	0.5527	16.7405	0.5632	13.8524	0.4674	13.9697	0.4741	13.9283	0.4735
578.7081	17.7916	0.5978	16.2186	0.5532	16.9037	0.5637	14.0050	0.4678	14.1007	0.4746	14.2459	0.4739
578.7409	17.7913	0.5984	16.3694	0.5537	16.6587	0.5643	13.8999	0.4683	14.0655	0.4750	14.0262	0.4744
578.7742	17.7479	0.5990	16.3321	0.5543	16.6513	0.5648	14.0093	0.4688	14.0846	0.4755	14.0586	0.4749
578.8075	17.8229	0.5996	16.5388	0.5548	16.8081	0.5654	13.7455	0.4692	14.2669	0.4760	14.0253	0.4753
578.8403	17.8075	0.6002	16.6023	0.5554	16.6885	0.5659	14.0542	0.4697	14.0485	0.4764	14.2014	0.4758
578.8737	17.8508	0.6007	16.3323	0.5559	16.7478	0.5665	14.0967	0.4702	14.1444	0.4769	14.1056	0.4763
578.9070	17.8791	0.6014	16.4593	0.5565	16.8443	0.5671	13.8248	0.4706	14.0880	0.4774	14.0697	0.4767
578.9398	17.8060	0.6019	16.4559	0.5570	16.6670	0.5676	13.9990	0.4711	14.1495	0.4778	14.2560	0.4772
578.9731	17.8815	0.6025	16.4587	0.5576	16.7814	0.5682	13.8634	0.4715	14.3110	0.4783	13.9733	0.4777
579.0059	17.8764	0.6031	16.6578	0.5581	16.8051	0.5687	14.1344	0.4720	14.1582	0.4788	14.2617	0.4781
579.0392	17.9997	0.6037	16.3153	0.5586	16.7759	0.5693	13.9542	0.4725	14.2138	0.4792	14.0303	0.4786
579.0725	17.8229	0.6043	16.3967	0.5592	16.9755	0.5698	13.8909	0.4729	14.2082	0.4797	14.0975	0.4791
579.1054	17.8260	0.6049	16.5071	0.5597	16.6692	0.5704	14.1262	0.4734	14.2009	0.4802	14.0656	0.4795
579.1387	17.8255	0.6055	16.3475	0.5603	16.5864	0.5709	13.9176	0.4738	14.3491	0.4807	14.0763	0.4800
579.1719	17.7492	0.6061	16.6021	0.5608	16.8069	0.5715	14.0421	0.4743	14.0590	0.4811	14.0984	0.4804
579.2047	17.7967	0.6067	16.2792	0.5614	16.6763	0.5720	13.8999	0.4748	14.2745	0.4816	14.0604	0.4809
579.2381	17.8736	0.6072	16.3981	0.5619	16.7426	0.5726	13.9875	0.4752	14.2523	0.4821	14.1572	0.4814
579.2709	17.7972	0.6078	16.4175	0.5625	16.7675	0.5731	13.7603	0.4757	14.1412	0.4825	14.0579	0.4819
579.3042	17.7990	0.6084	16.4720	0.5630	16.5377	0.5737	13.8845	0.4762	14.3205	0.4830	14.1825	0.4823
579.3374	17.8455	0.6090	16.6283	0.5635	16.7196	0.5743	14.0944	0.4766	14.0391	0.4835	13.9126	0.4828
579.3703	17.9077	0.6096	16.3387	0.5641	16.6063	0.5748	13.9543	0.4771	14.2439	0.4839	14.3018	0.4833
579.4036	17.9023	0.6102	16.3143	0.5646	16.7703	0.5754	14.0405	0.4776	14.3054	0.4844	14.1338	0.4837
579.4364	17.7231	0.6108	16.5401	0.5652	16.8753	0.5759	13.8724	0.4780	14.1160	0.4849	14.0748	0.4842
579.4697	17.6917	0.6114	16.3614	0.5657	16.5752	0.5765	14.0156	0.4785	14.2187	0.4854	14.1514	0.4847
579.5030	17.7032	0.6120	16.5649	0.5663	16.6348	0.5770	14.1211	0.4789	14.1621	0.4858	14.1517	0.4851
579.5359	17.7260	0.6126	16.2447	0.5668	16.7477	0.5776	13.9399	0.4794	14.2187	0.4863	14.2104	0.4856
579.5692	17.7807	0.6131	16.2228	0.5673	16.6775	0.5781	13.9722	0.4799	14.2386	0.4868	14.0028	0.4861
579.6021	17.6722	0.6137	16.3932	0.5679	16.7888	0.5787	13.8087	0.4803	14.0688	0.4873	14.2148	0.4865
579.6353	17.6080	0.6143	16.2963	0.5684	16.5007	0.5792	13.9042	0.4808	14.1067	0.4877	13.9341	0.4870
579.6687	17.6858	0.6149	16.3552	0.5690	16.3938	0.5798	13.8663	0.4813	14.0300	0.4882	14.0239	0.4875
579.7015	17.7397	0.6155	16.1171	0.5695	16.6428	0.5803	13.8423	0.4817	14.1364	0.4886	13.9935	0.4879
579.7348	17.4676	0.6160	16.0932	0.5700	16.4292	0.5809	13.8108	0.4822	14.0865	0.4891	13.9736	0.4884
579.7676	17.4468	0.6166	16.1582	0.5706	16.5562	0.5814	13.7293	0.4826	13.8911	0.4896	13.8801	0.4889
579.8010	17.3601	0.6172	16.1726	0.5711	16.3255	0.5819	13.8618	0.4831	13.9906	0.4900	13.8171	0.4893
579.8338	17.4864	0.6178	16.1141	0.5716	16.2779	0.5825	13.7926	0.4835	13.8316	0.4905	14.0020	0.4898
579.8671	17.4446	0.6184	15.8127	0.5722	16.4447	0.5830	13.7818	0.4840	13.9431	0.4909	13.7168	0.4902
579.9005	17.4231	0.6190	16.0315	0.5727	16.3695	0.5836	13.3487	0.4844	13.8475	0.4914	13.8142	0.4907
579.9333	17.4871	0.6195	16.0371	0.5732	16.4939	0.5841	13.5178	0.4849	13.8075	0.4919	13.6468	0.4911
579.9666	17.4834	0.6201	16.1858	0.5737	16.1196	0.5847	13.5069	0.4853	13.8677	0.4923	13.9146	0.4916
579.9994	17.2800	0.6207	15.8113	0.5743	16.3084	0.5852	13.7284	0.4858	13.7312	0.4928	13.7013	0.4920
580.0327	17.2503	0.6212	15.9476	0.5748	16.1393	0.5857	13.6503	0.4862	13.8432	0.4932	13.8345	0.4925
580.0660	17.2123	0.6218	15.7755	0.5753	16.3512	0.5863	13.3669	0.4867	13.5327	0.4937	13.5632	0.4929
580.0989	17.2610	0.6224	16.0169	0.5758	15.9714	0.5868	13.4333	0.4871	13.6236	0.4941	13.6932	0.4934
580.1322	17.1232	0.6230	15.6142	0.5764	16.0236	0.5873	13.3737	0.4876	13.6296	0.4946	13.5416	0.4939
580.1650	17.1082	0.6235	15.7019	0.5769	16.0568	0.5879	13.6296	0.4880	13.6162	0.4950	13.6757	0.4943
580.1983	17.1276	0.6241	15.5635	0.5774	16.0751	0.5884	13.3711	0.4885	13.7257	0.4955	13.5057	0.4948
580.2317	16.8910	0.6247	15.7292	0.5779	15.7702	0.5889	13.3761	0.4889	13.4695	0.4959	13.4565	0.4952
580.2645	16.8060	0.6252	15.3672	0.5784	15.8140	0.5894	13.1592	0.4893	13.4883	0.4964	13.2993	0.4956
580.2978	16.8133	0.6258	15.5071	0.5789	15.7013	0.5900	13.3663	0.4898	13.3099	0.4968	13.3939	0.4961
580.3306	16.7076	0.6263	15.4273	0.5795	15.8800	0.5905	13.1260	0.4902	13.5108	0.4973	13.2947	0.4965
580.3639	16.9099	0.6269	15.5190	0.5800	15.4562	0.5910	13.3475	0.4906	13.2156	0.4977	13.4759	0.4970
580.3973	16.6049	0.6274	15.2664	0.5805	15.6565	0.5915	13.0028	0.4911	13.4720	0.4981	13.2598	0.4974
580.4301	16.4601	0.6280	15.2674	0.5810	15.5070	0.5920	13.1552	0.4915	13.1614	0.4986	13.3797	0.4979
580.4635	16.5462	0.6285	15.3227	0.5815	15.4695	0.5925	12.9950	0.4919	13.2910	0.4990	13.0450	0.4983
580.4963	16.4394	0.6291	14.8862	0.5820	15.3212	0.5930	13.1073	0.4924	13.1416	0.4995	13.3165	0.4987
580.5296	16.4621	0.6296	15.1320	0.5825	15.2144	0.5936	12.8254	0.4928	13.2788	0.4999	13.0954	0.4992
580.5624	16.2037	0.6301	15.1152	0.5830	15.3099	0.5941	12.9450	0.4932	13.0501	0.5003	13.0584	0.4996
580.5957	16.2776	0.6307	14.7436	0.5835	14.9812	0.5946	12.6766	0.4936	13.0410	0.5008	12.8433	0.5000
580.6290	16.1304	0.6312	14.8343	0.5839	15.0526	0.5951	12.8224	0.4941	12.8640	0.5012	12.9216	0.5004
580.6618	16.2008	0.6318	14.8831	0.5844	15.2205	0.5956	12.6755	0.4945	12.9845	0.5016	12.7976	0.5009
580.6952	16.1111	0.6323	14.5174	0.5849	14.8929	0.5960	12.6582	0.4949	12.7019	0.5020	12.8085	0.5013
580.7284	15.9602	0.6328	14.7463	0.5854	14.9773	0.5965	12.5558	0.4953	12.8805	0.5025	12.7267	0.5017
580.7612	15.9144	0.6333	14.8400	0.5859	15.0047	0.5970	12.5471	0.4957	12.6015	0.5029	12.6675	0.5021
580.7946	15.9915	0.6339	14.4326	0.5864	14.8043	0.5975	12.6082	0.4962	12.7948	0.5033	12.7827	0.5026
580.8274	15.8332	0.6344	14.5588	0.5869	14.8749	0.5980	12.5472	0.4966	12.5876	0.5037	12.5389	0.5030
580.8607	15.7960	0.6349	14.6675	0.5873	14.9275	0.5985	12.5352	0.4970	12.7096	0.5041	12.5811	0.5034
580.8941	15.6534	0.6354	14.3861	0.5878	14.6804	0.5990	12.2845	0.4974	12.5426	0.5046	12.4828	0.5038
580.9268	15.8433	0.6360	14.3771	0.5883	14.6823	0.5995	12.3827	0.4978	12.4942	0.5050	12.4530	0.5042
580.9602	15.5391	0.6365	14.4085	0.5888	14.6534	0.6000	12.1601	0.4982	12.4315	0.5054	12.5535	0.5046
580.9935	15.6146	0.6370	14.3762	0.5892	14.6840	0.6005	12.2463	0.4986	12.4683	0.5058	12.2183	0.5050
581.0263	15.5470	0.6375	14.5127	0.5897	14.7429	0.6010	12.3395	0.4990	12.5400	0.5062	12.3742	0.5054
581.0596	15.5433	0.6380	14.0640	0.5902	14.3796	0.6014	12.2415	0.4994	12.4292	0.5066	12.3654	0.5058
581.0924	15.4107	0.6385	14.3096	0.5907	14.5134	0.6019	12.3636	0.4998	12.6265	0.5071	12.3269	0.5062
581.1258	15.4398	0.6390	14.2767	0.5911	14.5918	0.6024	12.0824	0.5002	12.3159	0.5074	12.5425	0.5067
581.1591	15.5480	0.6396	14.1120	0.5916	14.3563	0.6029	12.1449	0.5006	12.3716	0.5079	12.1011	0.5071
581.1919	15.1606	0.6401	14.2252	0.5921	14.3332	0.6033	12.0217	0.5010	12.1516	0.5083	12.1647	0.5075
581.2252	15.3296	0.6406	13.9023	0.5925	14.3121	0.6038	11.9116	0.5014	12.1320	0.5087	12.1881	0.5079
581.2580	15.3413	0.6411	14.0108	0.5930	14.2072	0.6043	12.0921	0.5018	12.1951	0.5091	12.1543	0.5083
581.2914	14.9426	0.6416	13.9693	0.5935	14.2483	0.6048	11.9200	0.5022	12.1765	0.5095	12.1496	0.5087
581.3247	15.0129	0.6421	13.8622	0.5939	13.9615	0.6052	11.9999	0.5026	12.2585	0.5099	12.0176	0.5091
581.3575	15.1910	0.6426	13.9472	0.5944	14.1339	0.6057	11.9396	0.5030	11.9904	0.5103	11.9999	0.5095
581.3908	14.7847	0.6431	13.6342	0.5948	13.8675	0.6061	11.6643	0.5034	11.9784	0.5107	11.9681	0.5099
581.4236	14.9138	0.6435	13.7493	0.5953	13.9844	0.6066	11.7069	0.5038	11.9441	0.5111	11.6387	0.5102
581.4569	14.9591	0.6440	13.5112	0.5957	13.8718	0.6071	11.7200	0.5042	11.8051	0.5114	11.8047	0.5106
581.4902	14.6267	0.6445	13.6063	0.5962	13.8830	0.6075	11.6865	0.5046	11.9186	0.5119	11.9420	0.5110
581.5230	14.8691	0.6450	13.5265	0.5966	13.9092	0.6080	11.7089	0.5050	11.7325	0.5122	11.5395	0.5114
581.5563	14.8270	0.6455	13.5257	0.5971	13.6870	0.6084	11.4210	0.5053	11.6661	0.5126	11.6549	0.5118
581.5895	14.6069	0.6460	13.5349	0.5975	13.8739	0.6089	11.5315	0.5057	11.7732	0.5130	11.7712	0.5122
581.6223	14.6364	0.6465	13.4229	0.5979	13.5301	0.6094	11.5430	0.5061	11.4780	0.5134	11.5726	0.5126
581.6557	14.5335	0.6470	13.3761	0.5984	13.7145	0.6098	11.4836	0.5065	11.5607	0.5138	11.6956	0.5130
581.6890	14.4830	0.6474	13.2217	0.5988	13.3392	0.6102	11.4421	0.5069	11.7431	0.5142	11.5288	0.5133
581.7218	14.5371	0.6479	13.3405	0.5993	13.6130	0.6107	11.5274	0.5072	11.4242	0.5145	11.3876	0.5137
581.7551	14.3042	0.6484	13.0919	0.5997	13.3158	0.6111	11.2889	0.5076	11.4109	0.5149	11.3704	0.5141
581.7884	14.2987	0.6489	13.3191	0.6001	13.4525	0.6116	11.3306	0.5080	11.5076	0.5153	11.4037	0.5145
581.8212	14.2414	0.6494	12.9877	0.6006	13.2356	0.6120	11.2694	0.5084	11.3635	0.5157	11.4574	0.5149
581.8545	14.1731	0.6498	13.1354	0.6010	13.1881	0.6125	11.1406	0.5087	11.2931	0.5161	11.1179	0.5152
581.8873	14.1279	0.6503	12.8726	0.6014	13.1114	0.6129	11.0853	0.5091	11.3487	0.5164	11.1881	0.5156
581.9206	13.9267	0.6507	12.9223	0.6019	13.1362	0.6133	11.0238	0.5094	11.0745	0.5168	11.2252	0.5160
581.9540	14.1363	0.6512	12.7425	0.6023	12.9852	0.6138	11.1930	0.5098	11.1578	0.5172	11.0711	0.5163
