time [s]	P_1 [mW]	E_1 [J]	P_2 [mW]	E_2 [J]	P_3 [mW]	E_3 [J]	P_4 [mW]	E_4 [J]	P_5 [mW]	E_5 [J]	P_6 [mW]	E_6 [J]
234.8345	1.9746	0.0956	1.9101	0.0927	1.9316	0.0935	1.4859	0.0743	1.5301	0.0748	1.6142	0.0791
234.8677	2.0083	0.0956	1.8809	0.0927	1.9621	0.0935	1.5708	0.0744	1.5562	0.0748	1.5961	0.0791
234.9009	1.9678	0.0957	1.8741	0.0928	1.8956	0.0936	1.5146	0.0744	1.5398	0.0749	1.6330	0.0792
234.9337	1.9782	0.0958	1.9095	0.0929	1.8859	0.0936	1.5259	0.0745	1.5261	0.0749	1.6506	0.0793
234.9669	1.9644	0.0958	1.9167	0.0930	1.9213	0.0937	1.5626	0.0745	1.5856	0.0750	1.6218	0.0793
235.0001	1.9763	0.0959	1.9178	0.0930	1.9509	0.0938	1.5416	0.0746	1.5449	0.0751	1.6501	0.0794
235.0333	1.9629	0.0960	1.9315	0.0931	1.9273	0.0938	1.5187	0.0746	1.4940	0.0751	1.6551	0.0794
235.0665	1.9488	0.0960	1.9546	0.0931	1.9138	0.0939	1.5199	0.0746	1.5493	0.0752	1.6114	0.0795
235.0992	1.9672	0.0961	1.9140	0.0932	1.9287	0.0940	1.5660	0.0747	1.5507	0.0752	1.5890	0.0795
235.1325	1.9820	0.0961	1.9018	0.0933	1.9201	0.0940	1.5295	0.0747	1.5290	0.0752	1.6527	0.0796
235.1657	1.9447	0.0962	1.8800	0.0933	1.9808	0.0941	1.5367	0.0748	1.5523	0.0753	1.6362	0.0796
235.1989	1.9738	0.0963	1.9155	0.0934	1.9267	0.0941	1.5679	0.0748	1.5860	0.0754	1.6307	0.0797
235.2317	1.9964	0.0964	1.8930	0.0935	1.8780	0.0942	1.5220	0.0749	1.5235	0.0754	1.6297	0.0797
235.2649	1.9804	0.0964	1.9366	0.0935	1.9646	0.0943	1.5174	0.0750	1.5323	0.0755	1.6701	0.0798
235.2982	1.9751	0.0965	1.9085	0.0936	1.9805	0.0943	1.5380	0.0750	1.5441	0.0755	1.6120	0.0798
235.3314	1.9690	0.0965	1.9003	0.0936	1.9263	0.0944	1.5443	0.0751	1.5380	0.0756	1.5728	0.0799
235.3642	1.9611	0.0966	1.9210	0.0937	1.9100	0.0945	1.5213	0.0751	1.5492	0.0756	1.6019	0.0799
235.3974	1.9620	0.0967	1.8918	0.0938	1.8990	0.0945	1.5431	0.0752	1.5650	0.0757	1.6485	0.0800
235.4307	1.9486	0.0967	1.9129	0.0938	1.9369	0.0946	1.4783	0.0752	1.5610	0.0757	1.6019	0.0801
235.4639	1.9760	0.0968	1.9017	0.0939	1.9339	0.0947	1.5097	0.0752	1.5179	0.0758	1.6214	0.0801
235.4967	1.9839	0.0969	1.8922	0.0940	1.8932	0.0947	1.5299	0.0753	1.5097	0.0758	1.6437	0.0802
235.5299	1.9723	0.0969	1.9148	0.0940	1.8553	0.0948	1.5657	0.0754	1.5365	0.0759	1.6454	0.0802
235.5631	1.9770	0.0970	1.8972	0.0941	1.9070	0.0949	1.5442	0.0754	1.5419	0.0759	1.5775	0.0803
235.5964	1.9912	0.0971	1.9065	0.0941	1.9325	0.0949	1.5538	0.0755	1.5417	0.0760	1.6225	0.0803
235.6296	1.9641	0.0971	1.9131	0.0942	1.9394	0.0950	1.5544	0.0755	1.5843	0.0760	1.6644	0.0804
235.6623	1.9544	0.0972	1.9037	0.0943	1.9010	0.0950	1.4896	0.0756	1.5295	0.0761	1.5989	0.0804
235.6955	1.9497	0.0973	1.9263	0.0943	1.9181	0.0951	1.5053	0.0756	1.5047	0.0761	1.6285	0.0805
235.7288	1.9701	0.0973	1.8959	0.0944	1.9229	0.0952	1.5370	0.0757	1.5292	0.0761	1.6195	0.0805
235.7621	1.9775	0.0974	1.9124	0.0945	1.9440	0.0952	1.5260	0.0757	1.5409	0.0762	1.6329	0.0806
235.7948	1.9434	0.0975	1.9008	0.0945	1.9074	0.0953	1.5356	0.0758	1.5171	0.0763	1.5725	0.0806
235.8280	1.9941	0.0975	1.8834	0.0946	1.8889	0.0954	1.5669	0.0758	1.5656	0.0763	1.6034	0.0807
235.8612	1.9585	0.0976	1.8778	0.0946	1.9241	0.0954	1.4913	0.0759	1.5564	0.0764	1.6276	0.0807
235.8944	1.9622	0.0976	1.9088	0.0947	1.9680	0.0955	1.5034	0.0759	1.5041	0.0764	1.6387	0.0808
235.9277	1.9801	0.0977	1.8990	0.0948	1.9304	0.0955	1.5403	0.0760	1.5301	0.0765	1.6274	0.0809
235.9604	1.9637	0.0978	1.9131	0.0948	1.9086	0.0956	1.5124	0.0760	1.5713	0.0765	1.6422	0.0809
235.9936	1.9603	0.0978	1.9297	0.0949	1.9009	0.0957	1.5091	0.0761	1.5473	0.0766	1.6435	0.0810
236.0268	1.9410	0.0979	1.8859	0.0950	1.9353	0.0957	1.5590	0.0761	1.5281	0.0766	1.5684	0.0810
236.0601	1.9385	0.0980	1.9070	0.0950	1.9771	0.0958	1.5274	0.0761	1.5699	0.0767	1.6176	0.0811
236.0933	1.9627	0.0980	1.8882	0.0951	1.9256	0.0959	1.5126	0.0762	1.5589	0.0767	1.6247	0.0811
236.1260	1.9823	0.0981	1.8929	0.0951	1.8548	0.0959	1.5147	0.0762	1.5047	0.0768	1.6199	0.0812
236.1592	1.9806	0.0982	1.8998	0.0952	1.9331	0.0960	1.5461	0.0763	1.5215	0.0768	1.6120	0.0812
236.1925	2.0010	0.0982	1.9443	0.0953	1.9370	0.0960	1.5268	0.0764	1.5719	0.0769	1.6452	0.0813
236.2257	1.9680	0.0983	1.9429	0.0953	1.9139	0.0961	1.5361	0.0764	1.5251	0.0769	1.6343	0.0814
236.2584	1.9892	0.0984	1.9258	0.0954	1.9060	0.0962	1.5491	0.0765	1.5378	0.0770	1.5773	0.0814
236.2917	1.9912	0.0984	1.8762	0.0954	1.9133	0.0963	1.5155	0.0765	1.5963	0.0770	1.6154	0.0814
236.3249	1.9440	0.0985	1.9159	0.0955	1.9294	0.0963	1.4904	0.0766	1.5209	0.0771	1.6284	0.0815
236.3582	1.9462	0.0985	1.9213	0.0956	1.9228	0.0964	1.5453	0.0766	1.5182	0.0771	1.6211	0.0816
236.3910	1.9665	0.0986	1.9136	0.0956	1.9032	0.0964	1.5245	0.0767	1.5126	0.0772	1.6374	0.0816
236.4242	1.9275	0.0987	1.8615	0.0957	1.8722	0.0965	1.5182	0.0767	1.5666	0.0772	1.6641	0.0817
236.4575	1.9525	0.0988	1.8662	0.0958	1.9263	0.0966	1.5766	0.0768	1.5243	0.0773	1.6701	0.0817
236.4907	1.9584	0.0988	1.9017	0.0958	1.9257	0.0966	1.4770	0.0768	1.5686	0.0773	1.5873	0.0818
236.5234	1.9697	0.0989	1.9400	0.0959	1.9453	0.0967	1.5059	0.0769	1.5806	0.0774	1.6263	0.0818
236.5566	1.9713	0.0989	1.9078	0.0960	1.9590	0.0967	1.5356	0.0769	1.5042	0.0774	1.6242	0.0819
236.5899	1.9788	0.0990	1.8814	0.0960	1.9002	0.0968	1.5240	0.0770	1.5240	0.0775	1.6153	0.0819
236.6231	1.9421	0.0991	1.8903	0.0961	1.9228	0.0969	1.5318	0.0770	1.5595	0.0775	1.6245	0.0820
236.6558	1.9735	0.0991	1.9099	0.0961	1.9469	0.0969	1.5378	0.0770	1.5473	0.0776	1.6292	0.0820
236.6890	1.9653	0.0992	1.9634	0.0962	1.9166	0.0970	1.5567	0.0771	1.5506	0.0776	1.6719	0.0821
236.7223	1.9406	0.0993	1.9006	0.0963	1.8917	0.0971	1.4943	0.0771	1.5756	0.0777	1.6210	0.0822
236.7555	1.9570	0.0993	1.8760	0.0963	1.9188	0.0971	1.5354	0.0772	1.5553	0.0777	1.6379	0.0822
236.7887	1.9503	0.0994	1.8745	0.0964	1.9273	0.0972	1.5315	0.0772	1.4995	0.0778	1.6362	0.0823
236.8214	1.9716	0.0994	1.9304	0.0964	1.9267	0.0973	1.5206	0.0773	1.5077	0.0778	1.6329	0.0823
236.8547	1.9475	0.0995	1.9784	0.0965	1.9381	0.0973	1.5325	0.0774	1.5725	0.0779	1.5984	0.0824
236.8879	1.9585	0.0996	1.9110	0.0966	1.9182	0.0974	1.5727	0.0774	1.5346	0.0779	1.6316	0.0824
236.9211	1.9776	0.0997	1.8969	0.0966	1.8963	0.0974	1.5190	0.0775	1.5306	0.0780	1.6563	0.0825
236.9544	1.9798	0.0997	1.8868	0.0967	1.9121	0.0975	1.5185	0.0775	1.5840	0.0780	1.6125	0.0825
236.9871	1.9427	0.0998	1.9136	0.0968	1.9273	0.0976	1.5561	0.0776	1.5289	0.0781	1.6042	0.0826
237.0203	1.9519	0.0998	1.9456	0.0968	1.9040	0.0976	1.5314	0.0776	1.5168	0.0781	1.6143	0.0826
237.0536	1.9534	0.0999	1.8973	0.0969	1.9327	0.0977	1.5312	0.0777	1.5212	0.0782	1.6374	0.0827
237.0868	1.9555	0.1000	1.8503	0.0969	1.9245	0.0978	1.5909	0.0777	1.5449	0.0782	1.6383	0.0827
237.1195	1.9568	0.1000	1.8785	0.0970	1.9001	0.0978	1.5242	0.0777	1.5578	0.0783	1.6075	0.0828
237.1528	1.9541	0.1001	1.9244	0.0971	1.9496	0.0979	1.5293	0.0778	1.5517	0.0783	1.6934	0.0828
237.1860	1.9397	0.1002	1.9252	0.0972	1.9160	0.0979	1.5183	0.0779	1.5582	0.0784	1.6136	0.0829
237.2193	1.9593	0.1002	1.8798	0.0972	1.9123	0.0980	1.5392	0.0779	1.5097	0.0784	1.5756	0.0829
237.2525	1.9256	0.1003	1.8757	0.0973	1.9169	0.0981	1.5243	0.0780	1.5077	0.0785	1.5946	0.0830
237.2852	1.9681	0.1003	1.9009	0.0973	1.8991	0.0981	1.5523	0.0780	1.5478	0.0785	1.6205	0.0830
237.3184	1.9458	0.1004	1.9116	0.0974	1.9183	0.0982	1.5202	0.0781	1.5270	0.0786	1.6204	0.0831
237.3516	1.9525	0.1005	1.9308	0.0975	1.9170	0.0983	1.5141	0.0781	1.5268	0.0786	1.6321	0.0831
237.3849	1.9383	0.1006	1.8805	0.0975	1.8886	0.0983	1.5220	0.0782	1.5576	0.0787	1.6778	0.0832
237.4181	1.9394	0.1006	1.8432	0.0976	1.9166	0.0984	1.5354	0.0782	1.5441	0.0787	1.6391	0.0833
237.4509	1.9518	0.1007	1.9308	0.0976	1.9139	0.0984	1.5344	0.0783	1.5289	0.0788	1.6033	0.0833
237.4842	1.9499	0.1007	1.9412	0.0977	1.9031	0.0985	1.5298	0.0783	1.5346	0.0788	1.5913	0.0834
237.5174	1.9770	0.1008	1.9052	0.0978	1.9127	0.0986	1.5935	0.0784	1.5595	0.0789	1.6346	0.0834
237.5501	1.9603	0.1009	1.8852	0.0978	1.9132	0.0986	1.4817	0.0784	1.5086	0.0789	1.6122	0.0835
237.5833	1.9659	0.1009	1.9086	0.0979	1.9279	0.0987	1.5155	0.0785	1.5415	0.0790	1.6128	0.0835
237.6166	1.9832	0.1010	1.9081	0.0979	1.9186	0.0988	1.5283	0.0785	1.5556	0.0790	1.6653	0.0836
237.6498	1.9464	0.1011	1.9300	0.0980	1.9020	0.0988	1.5228	0.0785	1.5295	0.0791	1.6216	0.0836
237.6831	1.9500	0.1011	1.8821	0.0981	1.9266	0.0989	1.5415	0.0786	1.5301	0.0791	1.6053	0.0837
237.7158	1.9432	0.1012	1.8488	0.0981	1.9269	0.0989	1.5573	0.0786	1.5578	0.0792	1.6130	0.0837
237.7490	1.9515	0.1013	1.8822	0.0982	1.9789	0.0990	1.5336	0.0787	1.5439	0.0792	1.6448	0.0838
237.7822	1.9518	0.1013	1.9503	0.0983	1.8934	0.0991	1.4871	0.0788	1.5301	0.0793	1.6156	0.0838
237.8155	1.9685	0.1014	1.8901	0.0983	1.9054	0.0991	1.5162	0.0788	1.5682	0.0793	1.6269	0.0839
237.8482	1.9653	0.1014	1.8717	0.0984	1.9209	0.0992	1.5306	0.0789	1.5361	0.0794	1.6352	0.0839
237.8814	1.9694	0.1015	1.8714	0.0985	1.9118	0.0993	1.5199	0.0789	1.4970	0.0794	1.6112	0.0840
237.9146	1.9791	0.1016	1.9004	0.0985	1.8843	0.0993	1.5319	0.0790	1.5083	0.0795	1.5813	0.0841
237.9478	1.9818	0.1016	1.9599	0.0986	1.8971	0.0994	1.5585	0.0790	1.5436	0.0795	1.5975	0.0841
237.9811	1.9531	0.1017	1.9031	0.0987	1.9151	0.0994	1.5020	0.0791	1.5413	0.0796	1.6413	0.0842
238.0138	1.9860	0.1018	1.8614	0.0987	1.9124	0.0995	1.5067	0.0791	1.5590	0.0796	1.6108	0.0842
238.0470	1.9478	0.1018	1.9048	0.0988	1.9282	0.0996	1.5631	0.0792	1.5781	0.0797	1.5956	0.0843
238.0803	1.9394	0.1019	1.9453	0.0988	1.9244	0.0997	1.4940	0.0792	1.5151	0.0798	1.6434	0.0843
238.1135	1.9542	0.1019	1.8903	0.0989	1.9049	0.0997	1.5143	0.0793	1.5359	0.0798	1.6108	0.0844
238.1462	1.9685	0.1020	1.8982	0.0990	1.9023	0.0998	1.5679	0.0793	1.5339	0.0798	1.5972	0.0844
238.1795	1.9863	0.1021	1.8999	0.0990	1.9315	0.0998	1.4950	0.0794	1.5340	0.0799	1.6041	0.0845
238.2128	1.9550	0.1022	1.8927	0.0991	1.8963	0.0999	1.4987	0.0794	1.5193	0.0799	1.6176	0.0845
238.2460	1.9732	0.1022	1.8794	0.0992	1.9052	0.1000	1.5262	0.0795	1.5379	0.0800	1.6294	0.0846
238.2787	1.9596	0.1023	1.8488	0.0992	1.9188	0.1000	1.5289	0.0795	1.5967	0.0800	1.6055	0.0847
238.3119	1.9555	0.1023	1.8649	0.0993	1.9370	0.1001	1.5124	0.0795	1.5105	0.0801	1.6469	0.0847
238.3452	1.9534	0.1024	1.8985	0.0993	1.9481	0.1002	1.5717	0.0796	1.5192	0.0801	1.6183	0.0848
238.3784	1.9724	0.1025	1.8758	0.0994	1.9136	0.1002	1.5491	0.0797	1.5709	0.0802	1.5771	0.0848
238.4111	1.9280	0.1025	1.8771	0.0994	1.8803	0.1003	1.4866	0.0797	1.5432	0.0803	1.6106	0.0848
238.4444	1.9650	0.1026	1.8868	0.0995	1.8789	0.1003	1.5059	0.0798	1.5172	0.0803	1.6115	0.0849
238.4776	1.9607	0.1027	1.9075	0.0996	1.9371	0.1004	1.5459	0.0798	1.5448	0.0804	1.6194	0.0850
238.5109	1.9512	0.1027	1.8927	0.0997	1.9031	0.1005	1.5124	0.0799	1.5296	0.0804	1.6230	0.0850
238.5436	1.9650	0.1028	1.8935	0.0997	1.9087	0.1005	1.5541	0.0799	1.4918	0.0804	1.6504	0.0851
238.5768	1.9843	0.1028	1.8964	0.0998	1.9208	0.1006	1.5885	0.0800	1.5287	0.0805	1.6346	0.0851
238.6100	1.9728	0.1029	1.9043	0.0998	1.9334	0.1006	1.5160	0.0800	1.5621	0.0805	1.6021	0.0852
238.6433	1.9732	0.1030	1.8945	0.0999	1.9198	0.1007	1.5010	0.0801	1.5177	0.0806	1.5767	0.0852
238.6760	1.9430	0.1031	1.9206	0.1000	1.9327	0.1008	1.5245	0.0801	1.5540	0.0806	1.6135	0.0853
238.7092	1.9532	0.1031	1.8931	0.1000	1.9249	0.1008	1.5273	0.0802	1.5758	0.0807	1.6343	0.0853
238.7425	1.9783	0.1032	1.9165	0.1001	1.9273	0.1009	1.5215	0.0802	1.5337	0.0807	1.6020	0.0854
238.7757	1.9630	0.1032	1.9541	0.1001	1.9204	0.1010	1.5620	0.0803	1.5102	0.0808	1.6707	0.0854
238.8085	1.9644	0.1033	1.8886	0.1002	1.9130	0.1010	1.5393	0.0803	1.5592	0.0808	1.6541	0.0855
238.8417	1.9616	0.1034	1.9094	0.1003	1.9235	0.1011	1.4957	0.0804	1.5343	0.0809	1.6064	0.0856
238.8750	1.9747	0.1034	1.8940	0.1003	1.9520	0.1012	1.5454	0.0804	1.5317	0.0810	1.6166	0.0856
238.9082	1.9901	0.1035	1.8926	0.1004	1.9367	0.1012	1.5234	0.0805	1.5506	0.0810	1.6029	0.0856
238.9409	1.9945	0.1036	1.8809	0.1004	1.9201	0.1013	1.5631	0.0805	1.5652	0.0810	1.6265	0.0857
238.9742	1.9700	0.1036	1.9079	0.1005	1.9090	0.1013	1.5491	0.0806	1.5451	0.0811	1.6001	0.0858
239.0074	1.9568	0.1037	1.9043	0.1006	1.9151	0.1014	1.5882	0.0806	1.5395	0.0811	1.6331	0.0858
239.0406	1.9397	0.1038	1.9084	0.1006	1.9256	0.1015	1.5314	0.0807	1.5618	0.0812	1.6431	0.0859
239.0734	1.9506	0.1038	1.8993	0.1007	1.9377	0.1015	1.4991	0.0807	1.5506	0.0813	1.5975	0.0859
239.1065	1.9522	0.1039	1.9131	0.1008	1.9299	0.1016	1.5487	0.0808	1.5367	0.0813	1.5998	0.0860
239.1397	1.9397	0.1040	1.8895	0.1008	1.9128	0.1017	1.5237	0.0808	1.5756	0.0814	1.6151	0.0860
239.1730	1.9697	0.1040	1.9164	0.1009	1.9081	0.1017	1.5526	0.0809	1.5402	0.0814	1.6299	0.0861
239.2062	1.9518	0.1041	1.8961	0.1010	1.9547	0.1018	1.5520	0.0809	1.5400	0.0815	1.6220	0.0861
239.2389	1.9299	0.1041	1.9090	0.1010	1.9136	0.1019	1.5068	0.0810	1.5180	0.0815	1.6191	0.0862
239.2721	1.9847	0.1042	1.8959	0.1011	1.9036	0.1019	1.5080	0.0810	1.5499	0.0816	1.6686	0.0862
239.3053	1.9751	0.1043	1.9144	0.1012	1.9364	0.1020	1.5077	0.0811	1.5323	0.0816	1.5871	0.0863
239.3385	1.9267	0.1043	1.9008	0.1012	1.9144	0.1020	1.5383	0.0811	1.5487	0.0817	1.6184	0.0863
239.3713	1.9681	0.1044	1.9373	0.1013	1.9204	0.1021	1.5001	0.0812	1.5851	0.0817	1.6195	0.0864
239.4045	1.9514	0.1045	1.9369	0.1013	1.9253	0.1022	1.5493	0.0812	1.5415	0.0818	1.6391	0.0864
239.4378	1.9541	0.1045	1.9209	0.1014	1.9179	0.1022	1.5736	0.0813	1.5190	0.0818	1.5700	0.0865
239.4710	1.9675	0.1046	1.9077	0.1015	1.9488	0.1023	1.4970	0.0813	1.5701	0.0819	1.6479	0.0865
239.5038	1.9663	0.1047	1.9070	0.1015	1.9760	0.1024	1.5295	0.0814	1.5592	0.0819	1.6546	0.0866
239.5370	1.9944	0.1047	1.9075	0.1016	1.9074	0.1024	1.5648	0.0814	1.5557	0.0820	1.6028	0.0867
239.5702	1.9949	0.1048	1.8905	0.1016	1.9120	0.1025	1.5438	0.0815	1.5669	0.0820	1.6074	0.0867
239.6034	1.9850	0.1049	1.8900	0.1017	1.9180	0.1025	1.5492	0.0815	1.5541	0.0821	1.6273	0.0868
239.6362	2.0018	0.1049	1.8962	0.1018	1.9392	0.1026	1.6016	0.0816	1.5257	0.0821	1.6154	0.0868
239.6694	1.9950	0.1050	1.9071	0.1018	1.9336	0.1027	1.5398	0.0816	1.5141	0.0822	1.6064	0.0869
239.7026	1.9641	0.1051	1.9197	0.1019	1.8898	0.1027	1.5171	0.0817	1.5376	0.0822	1.6377	0.0869
239.7358	1.9777	0.1051	1.9291	0.1019	1.9273	0.1028	1.5208	0.0817	1.5303	0.0823	1.6653	0.0870
239.7691	1.9655	0.1052	1.9081	0.1020	1.9344	0.1028	1.5157	0.0818	1.5415	0.0823	1.6019	0.0870
239.8018	1.9808	0.1052	1.8805	0.1021	1.9327	0.1029	1.5232	0.0818	1.5699	0.0824	1.6189	0.0871
239.8340	1.9741	0.1053	1.9160	0.1022	1.9484	0.1030	1.5369	0.0819	1.5450	0.0824	1.5952	0.0871
239.8682	1.9503	0.1054	1.9155	0.1022	1.9389	0.1031	1.5549	0.0819	1.5224	0.0825	1.6705	0.0872
239.9014	1.9646	0.1055	1.9079	0.1023	1.9394	0.1031	1.4970	0.0820	1.5232	0.0825	1.6059	0.0872
239.9342	1.9642	0.1055	1.9172	0.1023	1.9047	0.1032	1.5278	0.0820	1.5697	0.0826	1.6280	0.0873
239.9674	1.9801	0.1056	1.9084	0.1024	1.9000	0.1032	1.5526	0.0821	1.5326	0.0826	1.6464	0.0873
240.0006	1.9995	0.1056	1.9218	0.1025	1.9312	0.1033	1.5363	0.0821	1.5294	0.0827	1.6284	0.0874
240.0338	1.9770	0.1057	1.9207	0.1025	1.9233	0.1034	1.5309	0.0822	1.6023	0.0827	1.6130	0.0875
240.0670	1.9782	0.1058	1.9587	0.1026	1.9384	0.1034	1.5867	0.0822	1.5412	0.0828	1.6260	0.0875
240.0998	1.9676	0.1058	1.9309	0.1027	1.9594	0.1035	1.5387	0.0823	1.5243	0.0828	1.6476	0.0876
240.1330	1.9613	0.1059	1.8908	0.1027	1.9063	0.1036	1.4867	0.0823	1.5495	0.0829	1.6001	0.0876
240.1662	1.9674	0.1060	1.9041	0.1028	1.9145	0.1036	1.5490	0.0824	1.5679	0.0829	1.6391	0.0877
240.1990	1.9814	0.1060	1.9036	0.1028	1.9078	0.1037	1.5317	0.0824	1.5636	0.0830	1.6631	0.0877
240.2323	1.9616	0.1061	1.9145	0.1029	1.9140	0.1037	1.5476	0.0825	1.5766	0.0830	1.6612	0.0878
240.2655	1.9693	0.1061	1.9095	0.1030	1.9230	0.1038	1.5438	0.0825	1.5777	0.0831	1.6234	0.0878
240.2988	1.9691	0.1062	1.9031	0.1030	1.9201	0.1039	1.5442	0.0826	1.5061	0.0831	1.5771	0.0879
240.3315	1.9623	0.1063	1.9112	0.1031	1.8840	0.1039	1.5051	0.0826	1.5259	0.0832	1.6698	0.0879
240.3647	2.0133	0.1064	1.9090	0.1031	1.9492	0.1040	1.5017	0.0827	1.5411	0.0832	1.6006	0.0880
240.3979	1.9419	0.1064	1.9304	0.1032	1.9364	0.1041	1.5355	0.0827	1.5436	0.0833	1.6145	0.0881
240.4311	1.9569	0.1065	1.9067	0.1033	1.8996	0.1041	1.5039	0.0828	1.5180	0.0833	1.6255	0.0881
240.4644	1.9858	0.1065	1.8943	0.1033	1.9167	0.1042	1.5350	0.0828	1.5584	0.0834	1.6353	0.0882
240.4971	1.9326	0.1066	1.9001	0.1034	1.9189	0.1043	1.5635	0.0829	1.5586	0.0834	1.6077	0.0882
240.5303	1.9770	0.1067	1.8803	0.1035	1.9185	0.1043	1.4809	0.0829	1.5241	0.0835	1.5992	0.0883
240.5635	1.9669	0.1067	1.9045	0.1035	1.9284	0.1044	1.5154	0.0830	1.5379	0.0835	1.6118	0.0883
240.5967	1.9887	0.1068	1.9048	0.1036	1.9077	0.1044	1.5363	0.0830	1.5406	0.0836	1.6294	0.0884
240.6300	1.9690	0.1069	1.9193	0.1037	1.9294	0.1045	1.5334	0.0831	1.5343	0.0836	1.6189	0.0884
240.6627	1.9822	0.1069	1.9059	0.1037	1.9510	0.1046	1.5025	0.0831	1.5420	0.0837	1.6604	0.0885
240.6959	1.9956	0.1070	1.9195	0.1038	1.9379	0.1046	1.5777	0.0832	1.5758	0.0837	1.6514	0.0885
240.7292	1.9912	0.1071	1.9250	0.1038	1.9282	0.1047	1.5258	0.0832	1.5198	0.0838	1.6174	0.0886
240.7624	1.9754	0.1071	1.9040	0.1039	1.9330	0.1047	1.4921	0.0833	1.5323	0.0838	1.6049	0.0886
240.7951	1.9651	0.1072	1.8947	0.1040	1.9258	0.1048	1.5252	0.0833	1.5188	0.0839	1.6229	0.0887
240.8283	1.9753	0.1072	1.8747	0.1040	1.8991	0.1049	1.5169	0.0834	1.5491	0.0839	1.6440	0.0887
240.8615	1.9541	0.1073	1.8797	0.1041	1.9006	0.1049	1.5239	0.0834	1.5381	0.0840	1.6145	0.0888
240.8948	1.9757	0.1074	1.8660	0.1041	1.9200	0.1050	1.5308	0.0835	1.5487	0.0840	1.6066	0.0888
240.9280	1.9675	0.1074	1.8700	0.1042	1.9089	0.1051	1.5687	0.0835	1.5682	0.0841	1.6765	0.0889
240.9607	1.9734	0.1075	1.8791	0.1043	1.9237	0.1051	1.5147	0.0836	1.5113	0.0841	1.6019	0.0890
240.9939	1.9691	0.1076	1.9303	0.1043	1.9485	0.1052	1.5138	0.0836	1.4934	0.0842	1.6029	0.0890
241.0272	1.9767	0.1076	1.9371	0.1044	1.8956	0.1052	1.5423	0.0837	1.5438	0.0842	1.6282	0.0891
241.0604	1.9876	0.1077	1.8751	0.1045	1.9148	0.1053	1.5199	0.0837	1.5161	0.0843	1.6316	0.0891
241.0936	1.9647	0.1078	1.8905	0.1045	1.9228	0.1054	1.5182	0.0838	1.5373	0.0843	1.6225	0.0892
241.1263	1.9531	0.1078	1.8975	0.1046	1.9026	0.1055	1.5629	0.0838	1.5544	0.0844	1.6197	0.0892
241.1595	1.9315	0.1079	1.8929	0.1047	1.9257	0.1055	1.4825	0.0839	1.5639	0.0844	1.6488	0.0893
241.1928	1.9584	0.1080	1.8768	0.1047	1.9080	0.1056	1.4990	0.0839	1.5145	0.0845	1.6025	0.0893
241.2260	1.9282	0.1080	1.8950	0.1048	1.9385	0.1056	1.5487	0.0840	1.5177	0.0845	1.6022	0.0894
241.2587	1.9512	0.1081	1.8903	0.1048	1.9815	0.1057	1.4953	0.0840	1.5524	0.0846	1.6362	0.0894
241.2920	1.9918	0.1082	1.9212	0.1049	1.9385	0.1058	1.5038	0.0841	1.5265	0.0846	1.6566	0.0895
241.3252	1.9725	0.1082	1.9280	0.1050	1.8987	0.1058	1.5502	0.0841	1.5431	0.0847	1.6115	0.0896
241.3585	1.9731	0.1083	1.8696	0.1050	1.9057	0.1059	1.5121	0.0842	1.5845	0.0847	1.6146	0.0896
241.3913	1.9858	0.1084	1.8978	0.1051	1.9141	0.1060	1.5162	0.0842	1.5408	0.0848	1.6460	0.0896
241.4245	1.9839	0.1084	1.8701	0.1051	1.8994	0.1060	1.5041	0.0843	1.5124	0.0848	1.6350	0.0897
241.4577	1.9751	0.1085	1.9078	0.1052	1.9307	0.1061	1.5420	0.0843	1.5300	0.0849	1.5802	0.0898
241.4909	1.9491	0.1085	1.8638	0.1053	1.9116	0.1061	1.5112	0.0844	1.5527	0.0849	1.6115	0.0898
241.5237	1.9723	0.1086	1.8926	0.1053	1.9238	0.1062	1.5319	0.0844	1.5119	0.0850	1.6231	0.0899
241.5569	1.9580	0.1087	1.8901	0.1054	1.9185	0.1063	1.5332	0.0845	1.5548	0.0850	1.6169	0.0899
241.5901	1.9544	0.1087	1.8856	0.1055	1.9440	0.1063	1.4931	0.0845	1.5552	0.0851	1.6146	0.0900
241.6233	1.9541	0.1088	1.9319	0.1055	1.9170	0.1064	1.4938	0.0846	1.5005	0.0851	1.6495	0.0900
241.6565	1.9750	0.1089	1.8986	0.1056	1.9122	0.1065	1.5390	0.0846	1.5136	0.0852	1.6598	0.0901
241.6893	1.9761	0.1089	1.8925	0.1056	1.8963	0.1065	1.5237	0.0847	1.5658	0.0852	1.5881	0.0901
241.7225	1.9784	0.1090	1.9005	0.1057	1.9207	0.1066	1.5354	0.0847	1.5230	0.0853	1.6174	0.0902
241.7557	1.9779	0.1091	1.8760	0.1058	1.8941	0.1066	1.5789	0.0848	1.5398	0.0853	1.5941	0.0902
241.7890	1.9547	0.1091	1.8972	0.1058	1.9373	0.1067	1.4845	0.0848	1.5771	0.0854	1.6191	0.0903
241.8217	1.9606	0.1092	1.9121	0.1059	1.9257	0.1068	1.5039	0.0849	1.5589	0.0854	1.6259	0.0903
241.8549	1.9478	0.1093	1.8959	0.1060	1.9271	0.1068	1.5258	0.0849	1.5174	0.0855	1.6368	0.0904
241.8881	1.9518	0.1093	1.9088	0.1060	1.9572	0.1069	1.5105	0.0850	1.5254	0.0856	1.6612	0.0905
241.9214	1.9804	0.1094	1.9217	0.1061	1.9167	0.1070	1.5254	0.0850	1.5506	0.0856	1.5735	0.0905
241.9546	1.9562	0.1095	1.9122	0.1061	1.9116	0.1070	1.5761	0.0851	1.5268	0.0856	1.6194	0.0906
241.9873	1.9560	0.1095	1.8900	0.1062	1.9082	0.1071	1.5323	0.0851	1.5362	0.0857	1.6245	0.0906
242.0205	1.9574	0.1096	1.8868	0.1063	1.9220	0.1071	1.4910	0.0852	1.5660	0.0857	1.6348	0.0907
242.0538	1.9717	0.1096	1.8752	0.1063	1.9000	0.1072	1.5285	0.0852	1.4967	0.0858	1.6046	0.0907
242.0870	1.9741	0.1097	1.8785	0.1064	1.9109	0.1073	1.5347	0.0853	1.5100	0.0858	1.6267	0.0908
242.1197	1.9584	0.1098	1.8985	0.1065	1.9063	0.1073	1.5365	0.0853	1.5385	0.0859	1.6557	0.0908
242.1530	1.9636	0.1098	1.9062	0.1065	1.9407	0.1074	1.5466	0.0854	1.5685	0.0859	1.5967	0.0909
242.1862	1.9753	0.1099	1.8935	0.1066	1.9204	0.1075	1.5637	0.0854	1.5455	0.0860	1.5866	0.0909
242.2195	1.9678	0.1100	1.9153	0.1066	1.9275	0.1075	1.5239	0.0855	1.5559	0.0861	1.6422	0.0910
242.2522	1.9704	0.1100	1.9049	0.1067	1.8969	0.1076	1.4849	0.0855	1.5627	0.0861	1.6360	0.0910
242.2854	1.9466	0.1101	1.9130	0.1068	1.8964	0.1077	1.5478	0.0856	1.4982	0.0862	1.6400	0.0911
242.3187	1.9800	0.1102	1.9025	0.1068	1.9148	0.1077	1.5214	0.0856	1.5015	0.0862	1.6113	0.0911
242.3519	1.9920	0.1102	1.8982	0.1069	1.9210	0.1078	1.5473	0.0857	1.5576	0.0862	1.6564	0.0912
242.3846	1.9832	0.1103	1.8800	0.1070	1.9203	0.1078	1.5696	0.0857	1.5453	0.0863	1.5770	0.0912
242.4179	1.9855	0.1104	1.9258	0.1070	1.9520	0.1079	1.5023	0.0858	1.5479	0.0863	1.6021	0.0913
242.4511	1.9467	0.1104	1.9228	0.1071	1.9390	0.1080	1.5059	0.0858	1.5509	0.0864	1.6338	0.0914
242.4843	1.9511	0.1105	1.9080	0.1071	1.9235	0.1080	1.5282	0.0859	1.5190	0.0864	1.6345	0.0914
242.5171	1.9507	0.1105	1.9076	0.1072	1.9074	0.1081	1.5408	0.0859	1.4896	0.0865	1.6032	0.0915
242.5503	1.9491	0.1106	1.9293	0.1073	1.9071	0.1082	1.5304	0.0860	1.5352	0.0865	1.6359	0.0915
242.5835	1.9412	0.1107	1.8981	0.1073	1.8953	0.1082	1.5584	0.0860	1.5483	0.0866	1.6734	0.0916
242.6167	1.9428	0.1107	1.9025	0.1074	1.9101	0.1083	1.5461	0.0861	1.5428	0.0867	1.5947	0.0916
242.6500	1.9560	0.1108	1.8982	0.1075	1.8868	0.1083	1.4978	0.0861	1.5398	0.0867	1.6292	0.0917
242.6827	1.9765	0.1109	1.8896	0.1075	1.9165	0.1084	1.5034	0.0862	1.5747	0.0868	1.6210	0.0917
242.7159	1.9824	0.1109	1.9070	0.1076	1.9277	0.1085	1.5342	0.0862	1.5177	0.0868	1.6474	0.0918
242.7491	1.9691	0.1110	1.8683	0.1077	1.9371	0.1085	1.5371	0.0863	1.5046	0.0869	1.6221	0.0918
242.7823	1.9475	0.1110	1.9068	0.1077	1.9065	0.1086	1.5235	0.0863	1.5464	0.0869	1.6296	0.0919
242.8156	1.9563	0.1111	1.9201	0.1078	1.9003	0.1086	1.5537	0.0864	1.5325	0.0869	1.6813	0.0919
242.8483	1.9744	0.1112	1.9059	0.1079	1.9082	0.1087	1.5028	0.0864	1.5448	0.0870	1.5954	0.0920
242.8816	1.9749	0.1113	1.9150	0.1079	1.9332	0.1088	1.4870	0.0865	1.5626	0.0871	1.6062	0.0921
242.9148	1.9616	0.1113	1.8959	0.1080	1.9291	0.1089	1.5380	0.0865	1.5487	0.0871	1.6160	0.0921
242.9480	1.9456	0.1114	1.8960	0.1080	1.9188	0.1089	1.5157	0.0866	1.5290	0.0872	1.6277	0.0921
242.9812	1.9615	0.1114	1.9080	0.1081	1.9333	0.1090	1.5337	0.0866	1.5094	0.0872	1.6199	0.0922
243.0139	1.9841	0.1115	1.8945	0.1082	1.9314	0.1090	1.5790	0.0867	1.5383	0.0872	1.6251	0.0923
243.0471	1.9795	0.1116	1.9136	0.1082	1.9639	0.1091	1.5506	0.0867	1.5312	0.0873	1.6759	0.0923
243.0804	1.9684	0.1116	1.9142	0.1083	1.9020	0.1092	1.4968	0.0868	1.5350	0.0874	1.6555	0.0924
243.1136	1.9609	0.1117	1.9090	0.1083	1.9045	0.1092	1.5025	0.0868	1.5809	0.0874	1.5979	0.0924
243.1464	1.9534	0.1118	1.9052	0.1084	1.9188	0.1093	1.5248	0.0869	1.5100	0.0875	1.6213	0.0925
243.1797	1.9524	0.1118	1.9254	0.1085	1.9148	0.1094	1.4973	0.0869	1.5149	0.0875	1.6253	0.0925
243.2129	1.9385	0.1119	1.9113	0.1085	1.9241	0.1094	1.5105	0.0870	1.5224	0.0876	1.6346	0.0926
243.2461	1.9450	0.1119	1.8944	0.1086	1.9068	0.1095	1.5506	0.0870	1.5295	0.0876	1.6843	0.0926
243.2789	1.9704	0.1120	1.8943	0.1086	1.9179	0.1095	1.5204	0.0871	1.5265	0.0877	1.5978	0.0927
243.3122	1.9540	0.1121	1.8924	0.1087	1.9225	0.1096	1.5072	0.0871	1.5609	0.0877	1.6757	0.0927
243.3454	1.9622	0.1121	1.8917	0.1088	1.9336	0.1097	1.5632	0.0872	1.5610	0.0877	1.5565	0.0928
243.3781	1.9800	0.1122	1.8944	0.1089	1.9077	0.1097	1.5135	0.0872	1.5059	0.0878	1.6448	0.0929
243.4113	1.9856	0.1123	1.8954	0.1089	1.9360	0.1098	1.5249	0.0873	1.5220	0.0878	1.6204	0.0929
243.4445	1.9688	0.1123	1.8905	0.1090	1.9180	0.1099	1.5783	0.0873	1.5526	0.0879	1.6486	0.0930
243.4778	1.9832	0.1124	1.9090	0.1090	1.9133	0.1099	1.5336	0.0874	1.5346	0.0880	1.6543	0.0930
243.5110	1.9760	0.1125	1.9326	0.1091	1.9288	0.1100	1.5005	0.0874	1.5487	0.0880	1.6236	0.0931
243.5437	1.9682	0.1125	1.8864	0.1092	1.9179	0.1100	1.5239	0.0875	1.5867	0.0881	1.6425	0.0931
243.5769	1.9774	0.1126	1.9065	0.1092	1.9442	0.1101	1.5199	0.0875	1.5312	0.0881	1.6145	0.0932
243.6102	1.9691	0.1127	1.9071	0.1093	1.9233	0.1102	1.5310	0.0876	1.5166	0.0882	1.6544	0.0932
243.6430	1.9801	0.1127	1.8978	0.1093	1.9406	0.1102	1.5686	0.0876	1.5254	0.0882	1.5865	0.0933
243.6762	1.9589	0.1128	1.9163	0.1094	1.9300	0.1103	1.5056	0.0877	1.5744	0.0883	1.6555	0.0933
243.7095	1.9709	0.1129	1.8963	0.1095	1.9261	0.1104	1.5206	0.0877	1.5538	0.0883	1.6208	0.0934
243.7427	1.9851	0.1129	1.9078	0.1095	1.9053	0.1104	1.5129	0.0878	1.5504	0.0884	1.6810	0.0934
243.7754	1.9912	0.1130	1.9184	0.1096	1.9176	0.1105	1.5250	0.0878	1.5877	0.0884	1.6116	0.0935
243.8086	1.9596	0.1131	1.9166	0.1096	1.9089	0.1105	1.5107	0.0879	1.5160	0.0885	1.6251	0.0935
243.8419	1.9758	0.1131	1.8836	0.1097	1.9210	0.1106	1.5317	0.0879	1.5185	0.0885	1.6232	0.0936
243.8751	1.9605	0.1132	1.9253	0.1098	1.9089	0.1107	1.5540	0.0880	1.5399	0.0886	1.5993	0.0936
243.9083	1.9571	0.1133	1.8849	0.1098	1.9168	0.1107	1.4858	0.0880	1.5420	0.0886	1.6511	0.0937
243.9410	1.9547	0.1133	1.9016	0.1099	1.9325	0.1108	1.4918	0.0881	1.5593	0.0887	1.6208	0.0938
243.9743	1.9531	0.1134	1.9002	0.1100	1.9080	0.1109	1.5576	0.0881	1.5387	0.0887	1.6632	0.0938
244.0075	1.9584	0.1134	1.8881	0.1100	1.9059	0.1109	1.5373	0.0882	1.5561	0.0888	1.6019	0.0939
244.0407	1.9616	0.1135	1.8913	0.1101	1.9101	0.1110	1.5304	0.0882	1.5077	0.0888	1.6385	0.0939
244.0739	1.9739	0.1136	1.8917	0.1102	1.9105	0.1110	1.5699	0.0883	1.5445	0.0889	1.5834	0.0940
244.1067	1.9672	0.1136	1.9043	0.1102	1.9452	0.1111	1.5092	0.0883	1.5613	0.0889	1.6160	0.0940
244.1399	1.9581	0.1137	1.9189	0.1103	1.9184	0.1112	1.4970	0.0884	1.5110	0.0890	1.6062	0.0941
244.1731	1.9841	0.1138	1.8728	0.1103	1.9210	0.1113	1.5363	0.0884	1.5347	0.0890	1.6014	0.0941
244.2063	1.9581	0.1138	1.8895	0.1104	1.9347	0.1113	1.5135	0.0885	1.5165	0.0891	1.6772	0.0942
244.2391	1.9782	0.1139	1.8884	0.1105	1.9313	0.1114	1.5138	0.0885	1.5141	0.0891	1.6018	0.0942
244.2723	1.9639	0.1140	1.8716	0.1105	1.8895	0.1114	1.5725	0.0886	1.5119	0.0892	1.6575	0.0943
244.3055	1.9594	0.1140	1.8877	0.1106	1.9018	0.1115	1.5303	0.0886	1.5270	0.0892	1.5716	0.0943
244.3387	1.9591	0.1141	1.9000	0.1106	1.9181	0.1116	1.5033	0.0887	1.5539	0.0893	1.6452	0.0944
244.3720	1.9840	0.1142	1.8787	0.1107	1.9017	0.1116	1.5089	0.0887	1.5196	0.0893	1.6174	0.0945
244.4047	1.9870	0.1142	1.9240	0.1108	1.8905	0.1117	1.5233	0.0888	1.5204	0.0894	1.6063	0.0945
244.4379	1.9935	0.1143	1.9486	0.1108	1.9012	0.1117	1.5047	0.0888	1.5879	0.0894	1.6461	0.0945
244.4711	1.9483	0.1144	1.8493	0.1109	1.9228	0.1118	1.5453	0.0889	1.5092	0.0895	1.5888	0.0946
244.5043	1.9358	0.1144	1.8744	0.1110	1.9275	0.1119	1.5395	0.0889	1.5420	0.0895	1.6555	0.0947
244.5370	1.9592	0.1145	1.8821	0.1110	1.9430	0.1119	1.4832	0.0890	1.5320	0.0896	1.5882	0.0947
244.5703	1.9379	0.1145	1.8926	0.1111	1.9148	0.1120	1.4995	0.0890	1.5167	0.0896	1.6595	0.0948
244.6036	1.9488	0.1146	1.8759	0.1111	1.8887	0.1120	1.5189	0.0891	1.5626	0.0897	1.6086	0.0948
244.6368	1.9607	0.1147	1.8879	0.1112	1.9016	0.1121	1.5063	0.0891	1.5149	0.0897	1.6322	0.0949
244.6696	1.9741	0.1147	1.8891	0.1113	1.9241	0.1122	1.5354	0.0892	1.5503	0.0898	1.6562	0.0949
244.7028	1.9384	0.1148	1.9118	0.1113	1.9197	0.1123	1.5629	0.0892	1.5197	0.0898	1.6171	0.0950
244.7360	1.9624	0.1149	1.8921	0.1114	1.9372	0.1123	1.5072	0.0893	1.5249	0.0899	1.6526	0.0950
244.7688	1.9710	0.1149	1.8927	0.1115	1.9441	0.1124	1.5071	0.0893	1.5498	0.0899	1.6026	0.0951
244.8020	2.0120	0.1150	1.9117	0.1115	1.9507	0.1124	1.5464	0.0894	1.5489	0.0900	1.6762	0.0952
244.8352	1.9697	0.1151	1.8987	0.1116	1.9409	0.1125	1.5251	0.0894	1.5610	0.0900	1.5989	0.0952
244.8684	1.9856	0.1151	1.8852	0.1116	1.9121	0.1126	1.5251	0.0895	1.5238	0.0901	1.6160	0.0953
244.9017	1.9869	0.1152	1.8981	0.1117	1.9275	0.1126	1.5495	0.0895	1.5627	0.0901	1.6236	0.0953
244.9344	1.9682	0.1153	1.9067	0.1118	1.9197	0.1127	1.5125	0.0896	1.5409	0.0902	1.6383	0.0954
244.9677	1.9839	0.1153	1.8988	0.1118	1.9110	0.1128	1.4972	0.0896	1.5292	0.0902	1.6362	0.0954
245.0009	1.9319	0.1154	1.8831	0.1119	1.9331	0.1128	1.5316	0.0897	1.5927	0.0903	1.5767	0.0955
245.0341	1.9710	0.1154	1.9341	0.1119	1.9458	0.1129	1.5484	0.0897	1.5510	0.0903	1.6273	0.0955
245.0669	1.9828	0.1155	1.9428	0.1120	1.9149	0.1129	1.5403	0.0898	1.5662	0.0904	1.6246	0.0956
245.1001	1.9959	0.1156	1.8914	0.1121	1.9563	0.1130	1.5635	0.0898	1.5981	0.0904	1.6096	0.0956
245.1334	1.9920	0.1156	1.8941	0.1121	1.9531	0.1131	1.5500	0.0899	1.5290	0.0905	1.6343	0.0957
245.1666	2.0161	0.1157	1.8835	0.1122	1.9412	0.1131	1.5189	0.0899	1.5615	0.0905	1.6546	0.0957
245.1993	1.9734	0.1158	1.9033	0.1123	1.9318	0.1132	1.4995	0.0900	1.5557	0.0906	1.6396	0.0958
245.2326	1.9578	0.1158	1.9222	0.1123	1.9041	0.1133	1.5635	0.0900	1.5393	0.0906	1.5657	0.0958
245.2658	1.9847	0.1159	1.8872	0.1124	1.9592	0.1133	1.5176	0.0901	1.5585	0.0907	1.6130	0.0959
245.2990	1.9524	0.1160	1.9216	0.1125	1.9400	0.1134	1.5387	0.0901	1.5451	0.0907	1.6405	0.0960
245.3317	1.9637	0.1160	1.9130	0.1125	1.8981	0.1135	1.6010	0.0902	1.5750	0.0908	1.6312	0.0960
245.3650	1.9835	0.1161	1.9312	0.1126	1.9579	0.1135	1.5184	0.0902	1.5135	0.0908	1.6268	0.0960
245.3982	1.9493	0.1162	1.9446	0.1127	1.9774	0.1136	1.5152	0.0903	1.5604	0.0909	1.6604	0.0961
245.4315	1.9845	0.1162	1.9068	0.1127	1.9799	0.1137	1.5351	0.0903	1.5604	0.0909	1.6786	0.0962
245.4642	1.9781	0.1163	1.9176	0.1128	1.9171	0.1137	1.5682	0.0904	1.5621	0.0910	1.5974	0.0962
245.4974	1.9837	0.1164	1.9334	0.1128	1.9454	0.1138	1.5403	0.0905	1.5593	0.0910	1.6317	0.0963
245.5306	2.0098	0.1164	1.9077	0.1129	1.9422	0.1138	1.5778	0.0905	1.5286	0.0911	1.6520	0.0963
245.5639	2.0184	0.1165	1.9254	0.1130	1.9461	0.1139	1.5752	0.0906	1.5839	0.0911	1.6256	0.0964
245.5967	1.9716	0.1166	1.9040	0.1130	1.9173	0.1140	1.5277	0.0906	1.5293	0.0912	1.6322	0.0964
245.6299	1.9845	0.1166	1.9210	0.1131	1.9186	0.1140	1.5240	0.0906	1.5561	0.0912	1.6409	0.0965
245.6631	1.9710	0.1167	1.9394	0.1131	1.9226	0.1141	1.5891	0.0907	1.5584	0.0913	1.7009	0.0965
245.6964	1.9680	0.1168	1.9253	0.1132	1.9237	0.1142	1.5434	0.0907	1.5315	0.0914	1.5927	0.0966
245.7291	1.9647	0.1168	1.9514	0.1133	1.9753	0.1142	1.5615	0.0908	1.5489	0.0914	1.6026	0.0966
245.7623	1.9751	0.1169	1.9319	0.1133	1.9637	0.1143	1.5974	0.0908	1.5933	0.0915	1.6463	0.0967
245.7955	1.9873	0.1169	1.9121	0.1134	1.9416	0.1143	1.5694	0.0909	1.5749	0.0915	1.6251	0.0968
245.8287	2.0029	0.1170	1.9193	0.1135	1.9579	0.1144	1.5144	0.0910	1.5464	0.0915	1.6375	0.0968
245.8620	1.9885	0.1171	1.9315	0.1135	1.9384	0.1145	1.5485	0.0910	1.5586	0.0916	1.6354	0.0969
245.8947	1.9917	0.1172	1.9279	0.1136	1.9307	0.1145	1.5446	0.0911	1.5958	0.0917	1.6917	0.0969
245.9279	1.9686	0.1172	1.9209	0.1137	1.9219	0.1146	1.5298	0.0911	1.5412	0.0917	1.6207	0.0970
245.9611	1.9839	0.1173	1.9058	0.1137	1.9248	0.1147	1.5304	0.0911	1.5877	0.0918	1.6345	0.0970
245.9944	1.9841	0.1173	1.9120	0.1138	1.9354	0.1147	1.6191	0.0912	1.5393	0.0918	1.6411	0.0971
246.0271	1.9882	0.1174	1.9214	0.1139	1.9460	0.1148	1.5301	0.0912	1.5336	0.0919	1.6632	0.0971
246.0603	1.9758	0.1175	1.9447	0.1139	1.9423	0.1149	1.5270	0.0913	1.5293	0.0919	1.6470	0.0972
246.0935	1.9713	0.1175	1.9360	0.1140	1.9704	0.1149	1.5561	0.0914	1.5426	0.0920	1.6174	0.0973
246.1268	1.9423	0.1176	1.9410	0.1140	1.9641	0.1150	1.5540	0.0914	1.5939	0.0920	1.6657	0.0973
246.1600	1.9754	0.1177	1.9530	0.1141	1.9419	0.1150	1.5448	0.0915	1.5240	0.0921	1.6527	0.0973
246.1927	1.9792	0.1177	1.9169	0.1142	1.9412	0.1151	1.5588	0.0915	1.6089	0.0921	1.6253	0.0974
246.2260	1.9721	0.1178	1.9253	0.1142	1.9154	0.1152	1.5552	0.0916	1.5373	0.0922	1.6290	0.0975
246.2592	2.0115	0.1178	1.8981	0.1143	1.9279	0.1152	1.5124	0.0916	1.5787	0.0922	1.6653	0.0975
246.2925	2.0028	0.1179	1.9323	0.1144	1.9341	0.1153	1.5331	0.0917	1.5675	0.0923	1.6867	0.0976
246.3252	1.9981	0.1180	1.9353	0.1144	1.9282	0.1154	1.5710	0.0917	1.5527	0.0923	1.6240	0.0976
246.3585	1.9861	0.1181	1.9402	0.1145	1.9540	0.1154	1.5464	0.0918	1.6046	0.0924	1.6581	0.0977
246.3917	1.9920	0.1181	1.9473	0.1145	1.9517	0.1155	1.5372	0.0918	1.5459	0.0924	1.6922	0.0977
246.4249	1.9939	0.1182	1.9538	0.1146	1.9727	0.1156	1.6045	0.0919	1.5926	0.0925	1.6166	0.0978
246.4576	1.9943	0.1182	1.9223	0.1147	1.9500	0.1156	1.5306	0.0919	1.5455	0.0925	1.6308	0.0978
246.4908	1.9653	0.1183	1.9308	0.1147	1.9348	0.1157	1.5174	0.0920	1.5627	0.0926	1.6184	0.0979
246.5241	1.9744	0.1184	1.9021	0.1148	1.9353	0.1157	1.5642	0.0920	1.5434	0.0926	1.6789	0.0979
246.5573	1.9857	0.1184	1.9150	0.1149	1.9398	0.1158	1.5590	0.0921	1.5163	0.0927	1.6063	0.0980
246.5900	1.9657	0.1185	1.9329	0.1149	1.9276	0.1159	1.5472	0.0921	1.5953	0.0927	1.6492	0.0980
246.6232	2.0056	0.1186	1.8863	0.1150	1.9525	0.1159	1.5483	0.0922	1.5569	0.0928	1.6457	0.0981
246.6564	2.0069	0.1186	1.9126	0.1150	1.9331	0.1160	1.5610	0.0922	1.5690	0.0928	1.6540	0.0982
246.6897	2.0079	0.1187	1.8978	0.1151	1.9256	0.1161	1.5275	0.0923	1.5520	0.0929	1.6141	0.0982
246.7229	1.9800	0.1188	1.9155	0.1152	1.9789	0.1161	1.5044	0.0923	1.5179	0.0929	1.6205	0.0983
246.7556	1.9763	0.1188	1.9471	0.1152	1.9616	0.1162	1.5724	0.0924	1.5639	0.0930	1.6794	0.0983
246.7889	1.9845	0.1189	1.9506	0.1153	1.9088	0.1163	1.5289	0.0924	1.5155	0.0930	1.6419	0.0984
246.8221	1.9619	0.1190	1.9099	0.1154	1.9405	0.1163	1.5557	0.0925	1.5792	0.0931	1.6455	0.0984
246.8553	1.9887	0.1190	1.9441	0.1154	1.9325	0.1164	1.5789	0.0925	1.5415	0.0931	1.6333	0.0985
246.8881	1.9555	0.1191	1.9158	0.1155	1.9301	0.1164	1.5343	0.0926	1.5601	0.0932	1.6763	0.0985
246.9213	2.0000	0.1192	1.9350	0.1155	1.9672	0.1165	1.5449	0.0926	1.5725	0.0932	1.6514	0.0986
246.9545	1.9906	0.1192	1.9181	0.1156	1.9577	0.1166	1.5053	0.0927	1.5346	0.0933	1.6273	0.0987
246.9877	1.9929	0.1193	1.9276	0.1157	1.9432	0.1166	1.5800	0.0927	1.5837	0.0933	1.6441	0.0987
247.0210	2.0078	0.1194	1.9381	0.1157	1.9433	0.1167	1.5585	0.0928	1.5251	0.0934	1.6615	0.0988
247.0537	2.0084	0.1194	1.9633	0.1158	1.9398	0.1168	1.5768	0.0928	1.5421	0.0934	1.6457	0.0988
247.0869	2.0057	0.1195	1.9284	0.1159	1.9459	0.1168	1.5882	0.0929	1.6019	0.0935	1.6661	0.0989
247.1202	1.9905	0.1196	1.9527	0.1159	1.9581	0.1169	1.5317	0.0929	1.5225	0.0935	1.6759	0.0989
247.1534	1.9685	0.1196	1.9547	0.1160	1.9528	0.1169	1.5248	0.0930	1.5891	0.0936	1.6431	0.0990
247.1862	2.0075	0.1197	1.9095	0.1161	1.9589	0.1170	1.5306	0.0930	1.5097	0.0936	1.6150	0.0990
247.2194	1.9849	0.1197	1.9395	0.1161	1.9410	0.1171	1.5282	0.0931	1.5775	0.0937	1.6331	0.0991
247.2527	1.9870	0.1198	1.9050	0.1162	1.9618	0.1172	1.5459	0.0931	1.5679	0.0938	1.6468	0.0991
247.2859	1.9813	0.1199	1.8948	0.1163	1.9319	0.1172	1.5684	0.0932	1.5347	0.0938	1.6385	0.0992
247.3186	1.9643	0.1199	1.9245	0.1163	1.9343	0.1173	1.5177	0.0932	1.5837	0.0939	1.6594	0.0992
247.3518	2.0012	0.1200	1.9303	0.1164	1.9439	0.1173	1.5209	0.0933	1.5465	0.0939	1.6638	0.0993
247.3850	1.9998	0.1201	1.9253	0.1165	1.9642	0.1174	1.5292	0.0933	1.5895	0.0940	1.7071	0.0994
247.4183	1.9906	0.1201	1.9158	0.1165	1.9588	0.1175	1.5332	0.0934	1.5107	0.0940	1.6145	0.0994
247.4510	2.0156	0.1202	1.9145	0.1166	1.9303	0.1175	1.5459	0.0934	1.5724	0.0940	1.6331	0.0994
247.4842	2.0054	0.1203	1.9587	0.1166	1.9164	0.1176	1.5419	0.0935	1.5809	0.0941	1.6346	0.0995
247.5174	1.9927	0.1203	1.9464	0.1167	1.9344	0.1177	1.6043	0.0935	1.5445	0.0942	1.6509	0.0996
247.5507	2.0060	0.1204	1.9260	0.1168	1.9184	0.1177	1.4949	0.0936	1.5907	0.0942	1.6366	0.0996
247.5839	1.9678	0.1205	1.9373	0.1168	1.9192	0.1178	1.5342	0.0936	1.5303	0.0943	1.6560	0.0997
247.6166	1.9839	0.1205	1.9310	0.1169	1.9518	0.1178	1.5616	0.0937	1.5853	0.0943	1.7034	0.0997
247.6498	2.0001	0.1206	1.9266	0.1169	1.9237	0.1179	1.5607	0.0937	1.5182	0.0944	1.6212	0.0998
247.6831	1.9760	0.1207	1.9214	0.1170	1.9413	0.1180	1.5571	0.0938	1.5573	0.0944	1.6425	0.0998
247.7163	1.9779	0.1207	1.9294	0.1171	1.9493	0.1181	1.5605	0.0938	1.5829	0.0945	1.6409	0.0999
247.7495	1.9957	0.1208	1.9254	0.1172	1.9575	0.1181	1.5545	0.0939	1.5217	0.0945	1.6603	0.0999
247.7822	1.9654	0.1209	1.9278	0.1172	1.9335	0.1182	1.5139	0.0940	1.6251	0.0946	1.6728	0.1000
247.8155	1.9926	0.1209	1.9704	0.1173	1.9221	0.1182	1.5392	0.0940	1.5609	0.0946	1.6459	0.1001
247.8487	2.0105	0.1210	1.9246	0.1173	1.9531	0.1183	1.5660	0.0940	1.5898	0.0947	1.6601	0.1001
247.8819	1.9693	0.1211	1.9231	0.1174	1.9434	0.1184	1.5350	0.0941	1.5310	0.0947	1.6684	0.1002
247.9146	1.9807	0.1211	1.9145	0.1175	1.9422	0.1184	1.5621	0.0941	1.5618	0.0948	1.6288	0.1002
247.9478	1.9925	0.1212	1.9106	0.1175	1.9312	0.1185	1.5963	0.0942	1.5848	0.0948	1.6357	0.1003
247.9811	1.9840	0.1212	1.8978	0.1176	1.9380	0.1186	1.5261	0.0942	1.5228	0.0949	1.6427	0.1003
248.0143	1.9897	0.1213	1.9013	0.1177	1.9578	0.1186	1.5273	0.0943	1.5922	0.0949	1.6641	0.1004
248.0475	1.9916	0.1214	1.9081	0.1177	1.9530	0.1187	1.5463	0.0943	1.5255	0.0950	1.6424	0.1004
248.0803	1.9867	0.1215	1.9099	0.1178	1.9607	0.1187	1.5372	0.0944	1.5560	0.0950	1.6822	0.1005
248.1135	2.0040	0.1215	1.9337	0.1178	1.9074	0.1188	1.5354	0.0945	1.5506	0.0951	1.6922	0.1006
248.1467	1.9938	0.1216	1.9306	0.1179	1.9024	0.1189	1.5364	0.0945	1.5243	0.0951	1.6236	0.1006
248.1799	2.0249	0.1216	1.9245	0.1180	1.9257	0.1189	1.5741	0.0945	1.5663	0.0952	1.6357	0.1006
248.2131	1.9858	0.1217	1.9104	0.1180	1.9197	0.1190	1.5124	0.0946	1.5276	0.0952	1.6308	0.1007
248.2459	1.9955	0.1218	1.8890	0.1181	1.9618	0.1191	1.5138	0.0946	1.5739	0.0953	1.6780	0.1008
248.2791	1.9680	0.1218	1.9180	0.1182	1.9358	0.1191	1.5660	0.0947	1.5430	0.0953	1.6460	0.1008
248.3123	1.9820	0.1219	1.9259	0.1182	1.9219	0.1192	1.5138	0.0948	1.5367	0.0954	1.6405	0.1009
248.3456	1.9768	0.1220	1.9117	0.1183	1.9468	0.1193	1.5456	0.0948	1.5603	0.0954	1.6888	0.1009
248.3783	1.9870	0.1220	1.9236	0.1183	1.9594	0.1193	1.5736	0.0948	1.5012	0.0955	1.6444	0.1010
248.4115	1.9627	0.1221	1.9381	0.1184	1.9154	0.1194	1.5221	0.0949	1.5772	0.0955	1.6292	0.1010
248.4447	1.9820	0.1222	1.9186	0.1185	1.9577	0.1195	1.5306	0.0949	1.5459	0.0956	1.6123	0.1011
248.4780	1.9886	0.1222	1.9414	0.1185	1.9219	0.1195	1.5290	0.0950	1.5586	0.0956	1.6570	0.1011
248.5112	1.9676	0.1223	1.9159	0.1186	1.9250	0.1196	1.5291	0.0951	1.5717	0.0957	1.6514	0.1012
248.5440	1.9821	0.1224	1.9009	0.1187	1.9006	0.1196	1.5397	0.0951	1.5030	0.0957	1.6419	0.1012
248.5772	1.9956	0.1224	1.9263	0.1187	1.9056	0.1197	1.5510	0.0952	1.5786	0.0958	1.6574	0.1013
248.6104	1.9839	0.1225	1.8866	0.1188	1.9381	0.1198	1.5727	0.0952	1.5379	0.0958	1.6598	0.1013
248.6436	1.9647	0.1226	1.9090	0.1188	1.9520	0.1198	1.5201	0.0953	1.5649	0.0959	1.6078	0.1014
248.6764	1.9566	0.1226	1.8796	0.1189	1.9429	0.1199	1.5144	0.0953	1.5786	0.0959	1.6106	0.1014
248.7097	1.9621	0.1227	1.8823	0.1190	1.9660	0.1200	1.5673	0.0954	1.5243	0.0960	1.6563	0.1015
248.7429	2.0140	0.1227	1.9188	0.1190	1.9071	0.1200	1.5384	0.0954	1.5910	0.0960	1.6538	0.1016
248.7762	1.9689	0.1228	1.8738	0.1191	1.9276	0.1201	1.5437	0.0955	1.5143	0.0961	1.6345	0.1016
248.8089	1.9861	0.1229	1.9228	0.1192	1.9413	0.1202	1.6025	0.0955	1.5426	0.0961	1.6710	0.1017
248.8421	1.9898	0.1230	1.9200	0.1192	1.9200	0.1202	1.5148	0.0956	1.5641	0.0962	1.6594	0.1017
248.8754	1.9680	0.1230	1.8741	0.1193	1.9325	0.1203	1.5138	0.0956	1.5470	0.0962	1.6078	0.1018
248.9086	2.0018	0.1231	1.8778	0.1194	1.9410	0.1203	1.5361	0.0957	1.5758	0.0963	1.5899	0.1018
248.9413	2.0032	0.1231	1.9050	0.1194	1.9208	0.1204	1.5330	0.0957	1.5370	0.0963	1.6317	0.1019
248.9746	1.9931	0.1232	1.8948	0.1195	1.9709	0.1205	1.5331	0.0958	1.5527	0.0964	1.6650	0.1019
249.0079	1.9684	0.1233	1.9204	0.1195	1.8908	0.1205	1.5419	0.0958	1.5457	0.0964	1.6498	0.1020
249.0406	1.9578	0.1233	1.8715	0.1196	1.9136	0.1206	1.5512	0.0959	1.5056	0.0965	1.6217	0.1021
249.0739	1.9801	0.1234	1.8903	0.1197	1.9067	0.1207	1.5018	0.0959	1.5614	0.0965	1.6557	0.1021
249.1071	1.9650	0.1235	1.9202	0.1197	1.8825	0.1207	1.5220	0.0960	1.5320	0.0966	1.6217	0.1022
249.1403	1.9462	0.1235	1.9336	0.1198	1.9303	0.1208	1.5350	0.0960	1.5688	0.0966	1.5673	0.1022
249.1731	1.9751	0.1236	1.8713	0.1198	1.9257	0.1209	1.5321	0.0961	1.5539	0.0967	1.6150	0.1023
249.2063	1.9625	0.1236	1.8985	0.1199	1.9302	0.1209	1.5223	0.0961	1.5320	0.0967	1.6634	0.1023
249.2395	1.9459	0.1237	1.8632	0.1200	1.9559	0.1210	1.5766	0.0962	1.5576	0.0968	1.6105	0.1024
249.2728	1.9800	0.1238	1.8826	0.1200	1.9499	0.1210	1.5340	0.0962	1.5163	0.0968	1.6046	0.1024
249.3060	2.0064	0.1239	1.8917	0.1201	1.9326	0.1211	1.4960	0.0963	1.5654	0.0969	1.6333	0.1025
249.3387	1.9876	0.1239	1.8741	0.1202	1.9071	0.1212	1.5521	0.0963	1.5456	0.0969	1.6351	0.1025
249.3720	1.9732	0.1240	1.9087	0.1202	1.8894	0.1212	1.5284	0.0964	1.5362	0.0970	1.5998	0.1026
249.4053	1.9565	0.1240	1.8905	0.1203	1.9129	0.1213	1.5312	0.0964	1.5939	0.0970	1.6041	0.1026
249.4380	1.9823	0.1241	1.8782	0.1203	1.9270	0.1213	1.5538	0.0965	1.5163	0.0971	1.6557	0.1027
249.4712	1.9619	0.1242	1.9163	0.1204	1.8868	0.1214	1.5064	0.0965	1.5571	0.0972	1.6288	0.1027
249.5045	1.9713	0.1242	1.8746	0.1205	1.9157	0.1215	1.4981	0.0966	1.5554	0.0972	1.6194	0.1028
249.5377	1.9767	0.1243	1.8966	0.1205	1.9091	0.1215	1.5216	0.0966	1.5454	0.0973	1.6359	0.1028
249.5704	1.9658	0.1244	1.8961	0.1206	1.9331	0.1216	1.5339	0.0967	1.5596	0.0973	1.6557	0.1029
249.6037	1.9794	0.1244	1.9204	0.1207	1.9145	0.1217	1.4970	0.0967	1.5337	0.0973	1.5805	0.1030
249.6369	1.9906	0.1245	1.8791	0.1207	1.9364	0.1217	1.5702	0.0968	1.5491	0.0974	1.6063	0.1030
249.6701	1.9889	0.1246	1.8916	0.1208	1.9326	0.1218	1.5547	0.0968	1.5203	0.0975	1.6420	0.1031
249.7034	1.9852	0.1246	1.9022	0.1208	1.9084	0.1219	1.4897	0.0969	1.4952	0.0975	1.6337	0.1031
249.7361	1.9785	0.1247	1.9370	0.1209	1.9059	0.1219	1.5116	0.0969	1.5857	0.0976	1.6248	0.1032
249.7693	1.9350	0.1248	1.9250	0.1210	1.9221	0.1220	1.5510	0.0970	1.5405	0.0976	1.6148	0.1032
249.8025	1.9592	0.1248	1.8873	0.1210	1.9305	0.1221	1.5113	0.0970	1.5629	0.0977	1.6771	0.1033
249.8358	1.9613	0.1249	1.8969	0.1211	1.9185	0.1221	1.4965	0.0971	1.5312	0.0977	1.5638	0.1033
249.8690	1.9412	0.1250	1.8812	0.1211	1.9472	0.1222	1.5713	0.0971	1.4829	0.0978	1.6046	0.1034
249.9017	1.9569	0.1250	1.8720	0.1212	1.9164	0.1222	1.4765	0.0972	1.5438	0.0978	1.6471	0.1034
249.9349	1.9587	0.1251	1.8669	0.1213	1.8863	0.1223	1.4856	0.0972	1.5185	0.0979	1.6256	0.1035
249.9682	1.9674	0.1252	1.8934	0.1213	1.9200	0.1224	1.5321	0.0973	1.5601	0.0979	1.6338	0.1036
250.0014	1.9914	0.1252	1.8809	0.1214	1.8977	0.1224	1.5115	0.0973	1.5682	0.0979	1.6204	0.1036
250.0342	2.0079	0.1253	1.8684	0.1215	1.8960	0.1225	1.5226	0.0974	1.5271	0.0980	1.6630	0.1037
250.0674	1.9638	0.1253	1.9055	0.1215	1.8935	0.1226	1.5449	0.0974	1.5508	0.0980	1.5655	0.1037
250.1006	1.9680	0.1254	1.9090	0.1216	1.9210	0.1226	1.5323	0.0975	1.4943	0.0981	1.5970	0.1037
250.1338	1.9515	0.1255	1.8800	0.1217	1.9271	0.1227	1.4801	0.0975	1.5337	0.0982	1.6001	0.1038
250.1671	1.9697	0.1255	1.9062	0.1217	1.9582	0.1227	1.4883	0.0976	1.5261	0.0982	1.6090	0.1039
250.1998	1.9625	0.1256	1.9024	0.1218	1.9164	0.1228	1.5133	0.0976	1.5074	0.0983	1.6204	0.1039
250.2330	1.9697	0.1257	1.8814	0.1218	1.8896	0.1229	1.5110	0.0977	1.5766	0.0983	1.6387	0.1040
250.2662	1.9813	0.1257	1.9262	0.1219	1.9189	0.1229	1.5457	0.0977	1.5145	0.0984	1.6948	0.1040
250.2995	1.9831	0.1258	1.9077	0.1220	1.9392	0.1230	1.5690	0.0978	1.5246	0.0984	1.5736	0.1041
250.3327	2.0048	0.1259	1.9069	0.1220	1.9226	0.1231	1.5061	0.0978	1.5394	0.0985	1.6145	0.1041
250.3655	1.9931	0.1259	1.9210	0.1221	1.9555	0.1231	1.5155	0.0979	1.5072	0.0985	1.6093	0.1042
250.3987	1.9801	0.1260	1.9168	0.1221	1.9461	0.1232	1.5420	0.0979	1.5995	0.0985	1.6116	0.1042
250.4319	1.9772	0.1260	1.8764	0.1222	1.9534	0.1232	1.5072	0.0980	1.5533	0.0986	1.6242	0.1043
250.4651	1.9650	0.1261	1.9061	0.1223	1.9313	0.1233	1.5331	0.0980	1.5607	0.0987	1.6079	0.1043
250.4979	1.9427	0.1262	1.8771	0.1223	1.9347	0.1234	1.5635	0.0981	1.5540	0.0987	1.6538	0.1044
250.5311	1.9466	0.1263	1.8871	0.1224	1.9075	0.1234	1.4898	0.0981	1.5069	0.0988	1.5877	0.1045
250.5643	1.9682	0.1263	1.8986	0.1225	1.9219	0.1235	1.5113	0.0982	1.5654	0.0988	1.5953	0.1045
250.5976	1.9506	0.1264	1.8821	0.1225	1.9097	0.1235	1.5210	0.0982	1.5337	0.0989	1.6086	0.1046
250.6303	1.9531	0.1265	1.8984	0.1226	1.8966	0.1236	1.5353	0.0983	1.5543	0.0989	1.6532	0.1046
250.6636	1.9841	0.1265	1.9067	0.1227	1.9105	0.1237	1.5177	0.0983	1.5654	0.0990	1.6223	0.1047
250.6968	1.9701	0.1266	1.8998	0.1227	1.9014	0.1237	1.5521	0.0984	1.5077	0.0990	1.6313	0.1047
250.7301	1.9650	0.1266	1.8795	0.1228	1.9162	0.1238	1.5339	0.0984	1.5916	0.0991	1.6846	0.1048
250.7628	1.9625	0.1267	1.8950	0.1228	1.9235	0.1239	1.4904	0.0985	1.5006	0.0991	1.5854	0.1048
250.7960	1.9770	0.1268	1.9047	0.1229	1.9068	0.1240	1.4970	0.0985	1.5342	0.0992	1.5995	0.1049
250.8293	1.9543	0.1268	1.9240	0.1230	1.9168	0.1240	1.5314	0.0986	1.5492	0.0992	1.5944	0.1049
250.8625	1.9466	0.1269	1.8665	0.1230	1.9079	0.1241	1.5195	0.0986	1.5400	0.0993	1.6449	0.1050
250.8952	1.9449	0.1270	1.9223	0.1231	1.9256	0.1241	1.5476	0.0987	1.5719	0.0993	1.6269	0.1050
250.9284	1.9415	0.1270	1.9220	0.1231	1.9185	0.1242	1.5585	0.0987	1.5315	0.0994	1.6197	0.1051
250.9616	1.9731	0.1271	1.9055	0.1232	1.9254	0.1243	1.4755	0.0988	1.5367	0.0994	1.6828	0.1051
250.9949	1.9749	0.1272	1.9262	0.1233	1.9227	0.1243	1.4766	0.0988	1.5538	0.0995	1.6114	0.1052
251.0281	1.9889	0.1272	1.8655	0.1233	1.9480	0.1244	1.5028	0.0989	1.5137	0.0995	1.6066	0.1052
251.0608	1.9842	0.1273	1.8813	0.1234	1.9092	0.1244	1.4850	0.0989	1.5469	0.0996	1.6135	0.1053
251.0940	1.9864	0.1273	1.8954	0.1235	1.8984	0.1245	1.5308	0.0990	1.5392	0.0996	1.6531	0.1053
251.1273	1.9730	0.1274	1.8766	0.1235	1.9248	0.1246	1.5590	0.0990	1.5196	0.0997	1.6184	0.1054
251.1605	1.9943	0.1275	1.8764	0.1236	1.9216	0.1246	1.5245	0.0991	1.5573	0.0997	1.6253	0.1055
251.1937	1.9619	0.1275	1.8692	0.1236	1.9223	0.1247	1.4809	0.0991	1.5113	0.0998	1.6677	0.1055
251.2265	1.9593	0.1276	1.8760	0.1237	1.9240	0.1248	1.5415	0.0992	1.5312	0.0998	1.6190	0.1056
251.2597	1.9512	0.1277	1.8966	0.1238	1.9073	0.1248	1.5053	0.0992	1.5357	0.0999	1.5960	0.1056
251.2929	1.9639	0.1277	1.8990	0.1238	1.9174	0.1249	1.5146	0.0993	1.5185	0.0999	1.6133	0.1057
251.3261	1.9626	0.1278	1.8814	0.1239	1.9417	0.1249	1.5646	0.0993	1.5707	0.1000	1.6476	0.1057
251.3589	1.9547	0.1279	1.9035	0.1240	1.9111	0.1250	1.5205	0.0994	1.5116	0.1000	1.6453	0.1058
251.3921	1.9688	0.1279	1.9059	0.1240	1.9088	0.1251	1.5017	0.0994	1.5454	0.1001	1.6431	0.1058
251.4253	1.9653	0.1280	1.8793	0.1241	1.8926	0.1251	1.5299	0.0994	1.5182	0.1001	1.6732	0.1059
251.4585	1.9638	0.1281	1.8877	0.1241	1.9139	0.1252	1.5359	0.0995	1.5215	0.1002	1.6439	0.1059
251.4917	1.9571	0.1281	1.8733	0.1242	1.9285	0.1253	1.5168	0.0995	1.5846	0.1002	1.5976	0.1060
251.5245	1.9411	0.1282	1.9164	0.1243	1.9345	0.1253	1.5512	0.0996	1.5348	0.1003	1.6018	0.1061
251.5577	1.9596	0.1282	1.9041	0.1243	1.9609	0.1254	1.5385	0.0997	1.5762	0.1003	1.6323	0.1061
251.5909	1.9682	0.1283	1.9232	0.1244	1.9377	0.1255	1.5020	0.0997	1.5417	0.1004	1.6354	0.1061
251.6242	1.9904	0.1284	1.9054	0.1245	1.9353	0.1255	1.5072	0.0998	1.5210	0.1004	1.5998	0.1062
251.6569	1.9819	0.1284	1.9199	0.1245	1.9120	0.1256	1.5248	0.0998	1.5635	0.1005	1.6321	0.1062
251.6901	1.9659	0.1285	1.8760	0.1246	1.9099	0.1256	1.5310	0.0999	1.5028	0.1005	1.6609	0.1063
251.7233	2.0090	0.1286	1.8798	0.1246	1.9228	0.1257	1.5102	0.0999	1.5441	0.1006	1.6027	0.1064
251.7566	1.9807	0.1286	1.8585	0.1247	1.9124	0.1258	1.5871	0.1000	1.5398	0.1006	1.6117	0.1064
251.7898	1.9641	0.1287	1.8678	0.1248	1.9402	0.1258	1.4869	0.1000	1.5262	0.1007	1.6237	0.1065
251.8225	1.9789	0.1288	1.9051	0.1248	1.9094	0.1259	1.5166	0.1001	1.5660	0.1007	1.6256	0.1065
251.8557	1.9576	0.1288	1.9011	0.1249	1.9071	0.1260	1.5399	0.1001	1.5206	0.1008	1.6115	0.1066
251.8890	1.9589	0.1289	1.9237	0.1249	1.9176	0.1260	1.5160	0.1002	1.5476	0.1008	1.6641	0.1066
251.9222	1.9660	0.1290	1.9341	0.1250	1.9304	0.1261	1.5337	0.1002	1.5248	0.1009	1.6428	0.1067
251.9555	1.9607	0.1290	1.8914	0.1251	1.8916	0.1262	1.5540	0.1003	1.5146	0.1009	1.5860	0.1067
251.9882	1.9658	0.1291	1.8926	0.1251	1.9269	0.1262	1.5180	0.1003	1.5796	0.1010	1.6052	0.1068
252.0214	1.9684	0.1292	1.9103	0.1252	1.9208	0.1263	1.4758	0.1003	1.5250	0.1010	1.6448	0.1068
252.0546	1.9682	0.1292	1.8907	0.1253	1.9260	0.1263	1.5379	0.1004	1.5690	0.1011	1.6538	0.1069
252.0878	1.9647	0.1293	1.8809	0.1253	1.9316	0.1264	1.5161	0.1005	1.5300	0.1011	1.6072	0.1070
252.1210	1.9555	0.1294	1.8998	0.1254	1.9301	0.1265	1.5500	0.1005	1.5438	0.1012	1.6296	0.1070
252.1538	1.9431	0.1294	1.9012	0.1255	1.8847	0.1265	1.5384	0.1006	1.5719	0.1012	1.6500	0.1071
252.1870	1.9880	0.1295	1.9158	0.1255	1.9544	0.1266	1.5527	0.1006	1.5453	0.1013	1.5921	0.1071
252.2203	1.9552	0.1295	1.8903	0.1256	1.9425	0.1266	1.4945	0.1007	1.5492	0.1013	1.6009	0.1072
252.2535	1.9770	0.1296	1.9204	0.1256	1.9238	0.1267	1.4782	0.1007	1.5442	0.1014	1.6121	0.1072
252.2862	1.9678	0.1297	1.8949	0.1257	1.9205	0.1268	1.5426	0.1008	1.5050	0.1014	1.6511	0.1073
252.3195	1.9765	0.1297	1.9064	0.1258	1.8984	0.1268	1.4997	0.1008	1.5497	0.1015	1.6102	0.1073
252.3527	1.9600	0.1298	1.9220	0.1258	1.9103	0.1269	1.5336	0.1009	1.5064	0.1015	1.6114	0.1074
252.3859	1.9669	0.1299	1.8738	0.1259	1.9198	0.1270	1.5651	0.1009	1.5417	0.1016	1.6522	0.1074
252.4187	1.9939	0.1299	1.8718	0.1260	1.9210	0.1270	1.4850	0.1010	1.5432	0.1016	1.5910	0.1075
252.4520	2.0133	0.1300	1.8881	0.1260	1.9284	0.1271	1.5274	0.1010	1.5132	0.1017	1.5764	0.1075
252.4852	1.9540	0.1301	1.8926	0.1261	1.9569	0.1272	1.5352	0.1011	1.5732	0.1017	1.6029	0.1076
252.5185	1.9450	0.1301	1.8919	0.1262	1.9315	0.1272	1.5281	0.1011	1.4962	0.1018	1.6526	0.1076
252.5512	1.9544	0.1302	1.9171	0.1262	1.9120	0.1273	1.5295	0.1012	1.5111	0.1018	1.5935	0.1077
252.5844	1.9352	0.1303	1.9067	0.1263	1.9270	0.1273	1.5716	0.1012	1.5691	0.1019	1.6131	0.1077
252.6177	1.9603	0.1303	1.9029	0.1263	1.9178	0.1274	1.5019	0.1013	1.5204	0.1019	1.6537	0.1078
252.6509	1.9650	0.1304	1.8805	0.1264	1.9043	0.1275	1.5231	0.1013	1.5613	0.1020	1.6073	0.1079
252.6836	1.9450	0.1305	1.9036	0.1265	1.9136	0.1275	1.5149	0.1013	1.5413	0.1020	1.5995	0.1079
252.7169	1.9961	0.1305	1.9099	0.1265	1.9309	0.1276	1.5582	0.1014	1.5289	0.1021	1.6027	0.1080
252.7501	1.9697	0.1306	1.8872	0.1266	1.9380	0.1277	1.5607	0.1015	1.5508	0.1021	1.6731	0.1080
252.7834	1.9459	0.1306	1.9207	0.1266	1.9127	0.1277	1.5584	0.1015	1.4965	0.1022	1.6223	0.1081
252.8166	1.9706	0.1307	1.9057	0.1267	1.9642	0.1278	1.5699	0.1016	1.5646	0.1022	1.6489	0.1081
252.8493	1.9666	0.1308	1.9068	0.1268	1.9084	0.1278	1.4974	0.1016	1.5597	0.1023	1.6607	0.1082
252.8826	1.9650	0.1308	1.9099	0.1268	1.9232	0.1279	1.5264	0.1017	1.5445	0.1023	1.6379	0.1082
252.9158	1.9701	0.1309	1.9208	0.1269	1.9381	0.1280	1.5398	0.1017	1.5381	0.1024	1.5948	0.1083
252.9486	1.9734	0.1310	1.9019	0.1270	1.9159	0.1280	1.5025	0.1018	1.5053	0.1024	1.5907	0.1083
252.9819	1.9874	0.1310	1.9012	0.1270	1.9320	0.1281	1.5362	0.1018	1.5677	0.1025	1.6391	0.1084
253.0151	1.9785	0.1311	1.8966	0.1271	1.9238	0.1282	1.5498	0.1019	1.5259	0.1025	1.5978	0.1084
253.0484	1.9763	0.1311	1.8759	0.1272	1.9209	0.1282	1.5141	0.1019	1.5551	0.1026	1.6263	0.1085
253.0811	1.9738	0.1312	1.8845	0.1272	1.9315	0.1283	1.4856	0.1019	1.5860	0.1026	1.6595	0.1085
253.1143	1.9834	0.1313	1.8818	0.1273	1.9388	0.1284	1.5441	0.1020	1.5200	0.1027	1.6490	0.1086
253.1476	1.9934	0.1313	1.8950	0.1273	1.9154	0.1284	1.4947	0.1021	1.5606	0.1027	1.6244	0.1087
253.1808	1.9671	0.1314	1.9394	0.1274	1.9217	0.1285	1.5420	0.1021	1.5293	0.1028	1.6183	0.1087
253.2135	1.9471	0.1315	1.9013	0.1275	1.9073	0.1285	1.5536	0.1022	1.5290	0.1028	1.6507	0.1088
253.2468	1.9799	0.1315	1.9140	0.1275	1.9471	0.1286	1.5560	0.1022	1.5857	0.1029	1.6205	0.1088
253.2800	1.9731	0.1316	1.9099	0.1276	1.9303	0.1287	1.5099	0.1023	1.5271	0.1029	1.6308	0.1089
253.3132	1.9646	0.1317	1.9078	0.1277	1.9226	0.1287	1.4954	0.1023	1.5817	0.1030	1.6494	0.1089
253.3464	1.9555	0.1317	1.9107	0.1277	1.9320	0.1288	1.5396	0.1024	1.5527	0.1031	1.6561	0.1090
253.3792	1.9763	0.1318	1.9058	0.1278	1.9501	0.1289	1.4987	0.1024	1.5534	0.1031	1.6221	0.1090
253.4124	1.9566	0.1319	1.9114	0.1278	1.9301	0.1289	1.5231	0.1025	1.5664	0.1031	1.6063	0.1091
253.4457	1.9781	0.1319	1.9347	0.1279	1.9691	0.1290	1.5582	0.1025	1.5352	0.1032	1.6473	0.1091
253.4789	1.9755	0.1320	1.9256	0.1280	1.9322	0.1291	1.4837	0.1026	1.5885	0.1033	1.6311	0.1092
253.5116	1.9788	0.1321	1.9326	0.1280	1.9235	0.1291	1.5017	0.1026	1.5394	0.1033	1.6279	0.1093
253.5449	1.9921	0.1321	1.9186	0.1281	1.9208	0.1292	1.5594	0.1027	1.5713	0.1034	1.6455	0.1093
253.5781	1.9688	0.1322	1.8948	0.1281	1.9028	0.1292	1.5283	0.1027	1.5479	0.1034	1.6776	0.1094
253.6114	1.9851	0.1323	1.9169	0.1282	1.9297	0.1293	1.5571	0.1027	1.5017	0.1035	1.6274	0.1094
253.6441	1.9690	0.1323	1.9011	0.1283	1.9284	0.1294	1.5792	0.1028	1.5495	0.1035	1.5770	0.1095
253.6773	1.9803	0.1324	1.9043	0.1283	1.9266	0.1294	1.5318	0.1028	1.5215	0.1036	1.6201	0.1095
253.7106	1.9861	0.1325	1.8932	0.1284	1.9362	0.1295	1.5397	0.1029	1.5355	0.1036	1.6437	0.1096
253.7438	1.9999	0.1325	1.9154	0.1285	1.9419	0.1296	1.4777	0.1029	1.5814	0.1037	1.6242	0.1096
253.7765	1.9763	0.1326	1.9231	0.1285	1.9065	0.1296	1.5345	0.1030	1.5331	0.1037	1.6480	0.1097
253.8097	2.0149	0.1327	1.8920	0.1286	1.9074	0.1297	1.5462	0.1031	1.6055	0.1037	1.6741	0.1098
253.8429	2.0185	0.1327	1.9221	0.1286	1.9277	0.1298	1.5028	0.1031	1.4976	0.1038	1.6548	0.1098
253.8762	1.9747	0.1328	1.9013	0.1287	1.9124	0.1298	1.5772	0.1032	1.5612	0.1039	1.6049	0.1098
253.9094	1.9813	0.1328	1.9223	0.1288	1.9450	0.1299	1.4854	0.1032	1.5314	0.1039	1.6174	0.1099
253.9421	1.9612	0.1329	1.9250	0.1288	1.9210	0.1299	1.5017	0.1033	1.5271	0.1040	1.6560	0.1100
253.9753	1.9797	0.1330	1.9287	0.1289	1.9497	0.1300	1.5487	0.1033	1.5901	0.1040	1.6277	0.1100
254.0086	1.9830	0.1331	1.8995	0.1290	1.9342	0.1301	1.5153	0.1034	1.5218	0.1041	1.6251	0.1101
254.0414	1.9547	0.1331	1.9213	0.1290	1.9202	0.1301	1.5306	0.1034	1.5560	0.1041	1.6704	0.1101
254.0746	1.9706	0.1332	1.9245	0.1291	1.9597	0.1302	1.5562	0.1035	1.5127	0.1042	1.6684	0.1102
254.1078	1.9751	0.1332	1.9226	0.1292	1.9223	0.1303	1.4829	0.1035	1.5014	0.1042	1.6038	0.1102
254.1410	1.9701	0.1333	1.9615	0.1292	1.9429	0.1303	1.5306	0.1036	1.5899	0.1043	1.6402	0.1103
254.1738	1.9971	0.1334	1.9488	0.1293	1.9081	0.1304	1.5193	0.1036	1.5468	0.1043	1.6336	0.1103
254.2070	1.9847	0.1334	1.9268	0.1294	1.8980	0.1305	1.5328	0.1037	1.5758	0.1044	1.6116	0.1104
254.2402	1.9801	0.1335	1.9126	0.1294	1.9263	0.1305	1.5860	0.1037	1.5446	0.1044	1.6531	0.1104
254.2734	1.9858	0.1336	1.9233	0.1295	1.9327	0.1306	1.5226	0.1037	1.5529	0.1045	1.6373	0.1105
254.3067	1.9653	0.1336	1.9099	0.1295	1.9228	0.1306	1.5531	0.1038	1.5828	0.1045	1.6832	0.1105
254.3394	1.9816	0.1337	1.9092	0.1296	1.9231	0.1307	1.5206	0.1039	1.5039	0.1046	1.6191	0.1106
254.3727	1.9621	0.1338	1.8845	0.1297	1.9563	0.1308	1.5153	0.1039	1.5662	0.1046	1.6299	0.1106
254.4059	1.9464	0.1338	1.9012	0.1297	1.9226	0.1308	1.5506	0.1040	1.5595	0.1047	1.6483	0.1107
254.4386	1.9953	0.1339	1.9155	0.1298	1.9308	0.1309	1.5561	0.1040	1.5531	0.1047	1.6309	0.1108
254.4719	1.9631	0.1340	1.8996	0.1298	1.9004	0.1310	1.5375	0.1041	1.5594	0.1048	1.6385	0.1108
254.5051	1.9601	0.1340	1.9331	0.1299	1.9350	0.1310	1.5414	0.1041	1.5423	0.1048	1.6220	0.1109
254.5383	1.9789	0.1341	1.8849	0.1300	1.9590	0.1311	1.4990	0.1042	1.5822	0.1049	1.7018	0.1109
254.5711	2.0056	0.1341	1.9044	0.1300	1.9436	0.1311	1.5517	0.1042	1.5163	0.1049	1.6016	0.1110
254.6043	1.9883	0.1342	1.9360	0.1301	1.9283	0.1312	1.5245	0.1043	1.5582	0.1050	1.6279	0.1110
254.6376	1.9816	0.1343	1.9137	0.1302	1.9579	0.1313	1.4916	0.1043	1.5490	0.1050	1.6258	0.1111
254.6708	1.9894	0.1343	1.9111	0.1302	1.9405	0.1313	1.5491	0.1044	1.5215	0.1051	1.6603	0.1111
254.7035	1.9552	0.1344	1.9109	0.1303	1.9391	0.1314	1.4923	0.1044	1.5607	0.1051	1.6273	0.1112
254.7368	1.9732	0.1345	1.9288	0.1303	1.9037	0.1315	1.5207	0.1045	1.5069	0.1052	1.6131	0.1112
254.7700	1.9504	0.1345	1.9368	0.1304	1.9052	0.1315	1.5239	0.1045	1.5633	0.1052	1.6537	0.1113
254.8033	1.9612	0.1346	1.9221	0.1305	1.9030	0.1316	1.5016	0.1046	1.5635	0.1053	1.6221	0.1114
254.8360	1.9369	0.1347	1.9430	0.1305	1.9167	0.1317	1.5378	0.1046	1.5221	0.1053	1.6005	0.1114
254.8692	1.9476	0.1347	1.8895	0.1306	1.9176	0.1317	1.5362	0.1047	1.5895	0.1054	1.5956	0.1114
254.9025	1.9590	0.1348	1.8849	0.1307	1.9117	0.1318	1.4940	0.1047	1.5236	0.1054	1.6437	0.1115
254.9357	1.9856	0.1349	1.9062	0.1307	1.9159	0.1318	1.5637	0.1048	1.5429	0.1055	1.6418	0.1116
254.9685	1.9571	0.1349	1.8990	0.1308	1.9346	0.1319	1.4811	0.1048	1.5254	0.1055	1.6041	0.1116
255.0017	1.9607	0.1350	1.8826	0.1309	1.9117	0.1320	1.4782	0.1049	1.5078	0.1056	1.6586	0.1117
255.0350	1.9426	0.1350	1.8819	0.1309	1.9324	0.1320	1.5524	0.1049	1.5690	0.1056	1.6434	0.1117
255.0677	1.9763	0.1351	1.9224	0.1310	1.9248	0.1321	1.5287	0.1050	1.5413	0.1057	1.5886	0.1118
255.1010	1.9483	0.1352	1.8866	0.1310	1.8842	0.1321	1.5457	0.1050	1.5368	0.1057	1.6228	0.1118
255.1342	1.9804	0.1352	1.9195	0.1311	1.9139	0.1322	1.5343	0.1051	1.5409	0.1058	1.6331	0.1119
255.1674	1.9870	0.1353	1.8991	0.1312	1.9090	0.1323	1.4797	0.1051	1.4978	0.1058	1.6136	0.1119
255.2001	1.9778	0.1354	1.8863	0.1312	1.9327	0.1323	1.5266	0.1052	1.5520	0.1059	1.6162	0.1120
255.2334	1.9592	0.1354	1.9163	0.1313	1.9467	0.1324	1.5012	0.1052	1.5168	0.1059	1.6522	0.1120
255.2666	1.9951	0.1355	1.8674	0.1313	1.9366	0.1325	1.5078	0.1052	1.5294	0.1060	1.6780	0.1121
255.2999	1.9848	0.1356	1.8731	0.1314	1.9046	0.1325	1.5464	0.1053	1.5601	0.1060	1.6171	0.1121
255.3326	1.9546	0.1356	1.9254	0.1315	1.8996	0.1326	1.5067	0.1053	1.4842	0.1061	1.6103	0.1122
255.3658	1.9600	0.1357	1.9473	0.1315	1.9093	0.1327	1.4898	0.1054	1.5666	0.1061	1.6005	0.1123
255.3990	1.9536	0.1358	1.9062	0.1316	1.8994	0.1327	1.5399	0.1055	1.5122	0.1062	1.6099	0.1123
255.4323	1.9611	0.1358	1.8831	0.1317	1.9347	0.1328	1.4875	0.1055	1.5056	0.1062	1.5946	0.1124
255.4650	1.9512	0.1359	1.9131	0.1317	1.9104	0.1328	1.5245	0.1056	1.5587	0.1063	1.6375	0.1124
255.4982	1.9738	0.1360	1.9168	0.1318	1.9375	0.1329	1.5556	0.1056	1.5188	0.1063	1.6595	0.1125
255.5315	1.9756	0.1360	1.9388	0.1319	1.9304	0.1330	1.5147	0.1056	1.5532	0.1064	1.6165	0.1125
255.5647	1.9411	0.1361	1.8984	0.1319	1.9300	0.1330	1.5420	0.1057	1.5421	0.1064	1.6060	0.1126
255.5974	1.9703	0.1361	1.8518	0.1320	1.9136	0.1331	1.5141	0.1058	1.5289	0.1065	1.6204	0.1126
255.6307	1.9782	0.1362	1.8791	0.1320	1.9130	0.1332	1.5187	0.1058	1.5592	0.1065	1.6279	0.1127
255.6639	1.9861	0.1363	1.9388	0.1321	1.9247	0.1332	1.5697	0.1059	1.5145	0.1066	1.6147	0.1127
255.6971	1.9506	0.1363	1.9064	0.1322	1.9506	0.1333	1.5317	0.1059	1.5829	0.1066	1.6194	0.1128
255.7298	1.9667	0.1364	1.8747	0.1322	1.9089	0.1334	1.5226	0.1060	1.5359	0.1067	1.6609	0.1128
255.7631	1.9643	0.1365	1.8923	0.1323	1.9282	0.1334	1.5145	0.1060	1.5415	0.1067	1.5986	0.1129
255.7963	1.9604	0.1365	1.8827	0.1323	1.9129	0.1335	1.4837	0.1061	1.5585	0.1068	1.6108	0.1129
255.8296	1.9574	0.1366	1.9490	0.1324	1.9261	0.1335	1.5331	0.1061	1.5039	0.1068	1.6064	0.1130
255.8623	1.9770	0.1367	1.9179	0.1325	1.9732	0.1336	1.5394	0.1061	1.5479	0.1069	1.6387	0.1130
255.8956	1.9655	0.1367	1.8891	0.1325	1.9444	0.1337	1.5030	0.1062	1.5190	0.1069	1.5879	0.1131
255.9288	1.9901	0.1368	1.8990	0.1326	1.9158	0.1337	1.5775	0.1062	1.5465	0.1070	1.6343	0.1131
255.9620	1.9834	0.1369	1.9395	0.1327	1.9248	0.1338	1.5064	0.1063	1.5671	0.1071	1.6594	0.1132
255.9948	1.9968	0.1369	1.9329	0.1327	1.9184	0.1339	1.5314	0.1064	1.5271	0.1071	1.6112	0.1133
256.0280	1.9555	0.1370	1.9050	0.1328	1.9208	0.1339	1.5534	0.1064	1.5557	0.1071	1.6105	0.1133
256.0612	1.9835	0.1371	1.8938	0.1328	1.9389	0.1340	1.4742	0.1065	1.5091	0.1072	1.6122	0.1134
256.0945	1.9799	0.1371	1.9145	0.1329	1.9199	0.1340	1.5353	0.1065	1.5290	0.1072	1.6664	0.1134
256.1272	1.9455	0.1372	1.9173	0.1330	1.9400	0.1341	1.5563	0.1066	1.5617	0.1073	1.6103	0.1135
256.1604	1.9656	0.1373	1.9388	0.1331	1.9334	0.1342	1.5152	0.1066	1.5235	0.1073	1.6448	0.1135
256.1937	1.9615	0.1373	1.9266	0.1331	1.9139	0.1342	1.6001	0.1067	1.5871	0.1074	1.6725	0.1136
256.2265	1.9572	0.1374	1.8788	0.1332	1.9581	0.1343	1.4987	0.1067	1.4945	0.1074	1.6154	0.1136
256.2597	1.9579	0.1374	1.8928	0.1332	1.9248	0.1344	1.5141	0.1068	1.5381	0.1075	1.6400	0.1137
256.2929	1.9730	0.1375	1.9389	0.1333	1.9586	0.1344	1.5727	0.1068	1.5346	0.1075	1.6075	0.1138
256.3262	1.9995	0.1376	1.9329	0.1334	1.9344	0.1345	1.5193	0.1069	1.5149	0.1076	1.6581	0.1138
256.3589	2.0076	0.1376	1.8787	0.1334	1.8978	0.1346	1.5880	0.1069	1.5789	0.1077	1.6200	0.1139
256.3921	1.9814	0.1377	1.8932	0.1335	1.9225	0.1346	1.5504	0.1070	1.5531	0.1077	1.6505	0.1139
256.4255	1.9680	0.1378	1.9158	0.1335	1.9598	0.1347	1.5012	0.1070	1.5279	0.1077	1.6576	0.1140
256.4587	1.9543	0.1378	1.9371	0.1336	1.9551	0.1348	1.5383	0.1071	1.5508	0.1078	1.6873	0.1140
256.4914	1.9457	0.1379	1.9344	0.1337	1.9360	0.1348	1.4921	0.1071	1.5107	0.1079	1.6253	0.1141
256.5247	1.9571	0.1379	1.8903	0.1337	1.8913	0.1349	1.5245	0.1072	1.5573	0.1079	1.5970	0.1141
256.5579	1.9770	0.1380	1.8659	0.1338	1.9187	0.1349	1.5788	0.1072	1.5105	0.1080	1.6246	0.1142
256.5906	1.9484	0.1381	1.9109	0.1339	1.9098	0.1350	1.5144	0.1073	1.5595	0.1080	1.6231	0.1142
256.6239	1.9770	0.1381	1.9287	0.1339	1.9346	0.1351	1.5481	0.1073	1.5822	0.1080	1.6281	0.1143
256.6572	1.9866	0.1382	1.9308	0.1340	1.9309	0.1351	1.5336	0.1074	1.5298	0.1081	1.6346	0.1143
256.6899	1.9954	0.1383	1.9317	0.1340	1.9250	0.1352	1.5229	0.1074	1.5762	0.1081	1.6993	0.1144
256.7232	1.9804	0.1383	1.8754	0.1341	1.9188	0.1353	1.5705	0.1075	1.4943	0.1082	1.6271	0.1144
256.7564	1.9782	0.1384	1.9132	0.1342	1.9360	0.1353	1.5229	0.1075	1.5520	0.1083	1.5778	0.1145
256.7897	1.9582	0.1385	1.9271	0.1343	1.9291	0.1354	1.5739	0.1076	1.5518	0.1083	1.6166	0.1145
256.8224	1.9902	0.1385	1.9230	0.1343	1.9151	0.1354	1.5409	0.1076	1.5459	0.1084	1.6555	0.1146
256.8556	1.9901	0.1386	1.8756	0.1344	1.9302	0.1355	1.5212	0.1077	1.5965	0.1084	1.6377	0.1147
256.8889	1.9688	0.1387	1.8723	0.1344	1.9286	0.1356	1.5544	0.1077	1.5384	0.1085	1.6655	0.1147
256.9221	1.9956	0.1387	1.9189	0.1345	1.9299	0.1356	1.5312	0.1078	1.5902	0.1085	1.6947	0.1148
256.9553	1.9882	0.1388	1.9537	0.1346	1.9356	0.1357	1.5359	0.1078	1.5017	0.1085	1.6442	0.1148
256.9880	1.9622	0.1389	1.8982	0.1346	1.8990	0.1358	1.5794	0.1079	1.5445	0.1086	1.6095	0.1149
257.0213	1.9738	0.1389	1.8659	0.1347	1.9313	0.1358	1.5323	0.1079	1.5899	0.1086	1.6197	0.1149
257.0545	1.9782	0.1390	1.8922	0.1348	1.9466	0.1359	1.5074	0.1080	1.5542	0.1087	1.6334	0.1150
257.0873	1.9678	0.1391	1.9647	0.1348	1.9422	0.1359	1.5323	0.1080	1.5638	0.1088	1.6379	0.1150
257.1205	1.9820	0.1391	1.9363	0.1349	1.9110	0.1360	1.5342	0.1081	1.5438	0.1088	1.6365	0.1151
257.1538	1.9570	0.1392	1.8777	0.1349	1.9052	0.1361	1.5373	0.1081	1.5303	0.1089	1.6468	0.1151
257.1870	1.9343	0.1393	1.8818	0.1350	1.9160	0.1361	1.5521	0.1082	1.5274	0.1089	1.6650	0.1152
257.2197	1.9473	0.1393	1.9022	0.1351	1.9099	0.1362	1.5626	0.1082	1.5245	0.1090	1.5962	0.1152
257.2530	1.9782	0.1394	1.9070	0.1351	1.9170	0.1363	1.5295	0.1083	1.6080	0.1090	1.6123	0.1153
257.2863	1.9647	0.1394	1.9277	0.1352	1.9015	0.1363	1.5007	0.1083	1.5367	0.1091	1.6299	0.1153
257.3190	1.9610	0.1395	1.8919	0.1353	1.9258	0.1364	1.5412	0.1084	1.5637	0.1091	1.6171	0.1154
257.3522	1.9789	0.1396	1.9268	0.1353	1.9195	0.1364	1.5118	0.1084	1.5516	0.1092	1.6214	0.1154
257.3855	1.9992	0.1396	1.8999	0.1354	1.9665	0.1365	1.5312	0.1085	1.5199	0.1092	1.6433	0.1155
257.4187	1.9555	0.1397	1.8914	0.1354	1.9189	0.1366	1.5657	0.1085	1.5735	0.1093	1.6658	0.1156
257.4515	1.9618	0.1398	1.9112	0.1355	1.9003	0.1366	1.5050	0.1086	1.5320	0.1093	1.5841	0.1156
257.4848	1.9416	0.1398	1.8609	0.1356	1.9286	0.1367	1.5127	0.1086	1.5429	0.1094	1.6083	0.1157
257.5180	1.9644	0.1399	1.9045	0.1356	1.9220	0.1368	1.5279	0.1087	1.5560	0.1094	1.6476	0.1157
257.5513	1.9730	0.1400	1.8916	0.1357	1.9158	0.1368	1.5381	0.1087	1.5209	0.1095	1.6254	0.1158
257.5840	1.9463	0.1400	1.8847	0.1357	1.9083	0.1369	1.5196	0.1088	1.5811	0.1095	1.6202	0.1158
257.6172	1.9612	0.1401	1.9176	0.1358	1.9375	0.1369	1.5645	0.1088	1.4995	0.1096	1.6219	0.1159
257.6505	1.9739	0.1402	1.9275	0.1359	1.9614	0.1370	1.5368	0.1089	1.5699	0.1096	1.6789	0.1159
257.6832	1.9636	0.1402	1.9108	0.1359	1.9593	0.1371	1.5174	0.1089	1.5387	0.1097	1.5877	0.1160
257.7164	1.9697	0.1403	1.9070	0.1360	1.9189	0.1371	1.5300	0.1090	1.5368	0.1097	1.6291	0.1161
257.7497	1.9729	0.1404	1.9141	0.1361	1.9220	0.1372	1.5635	0.1090	1.5984	0.1098	1.6336	0.1161
257.7829	1.9745	0.1404	1.9015	0.1361	1.9248	0.1373	1.5344	0.1091	1.5367	0.1098	1.6211	0.1162
257.8161	1.9713	0.1405	1.8986	0.1362	1.9090	0.1373	1.5495	0.1091	1.5736	0.1099	1.6051	0.1162
257.8489	1.9593	0.1406	1.8963	0.1363	1.9136	0.1374	1.5713	0.1092	1.5080	0.1099	1.6133	0.1163
257.8821	1.9790	0.1406	1.9059	0.1363	1.9383	0.1375	1.4798	0.1092	1.5331	0.1100	1.6529	0.1163
257.9154	1.9575	0.1407	1.9326	0.1364	1.9325	0.1375	1.5077	0.1093	1.5609	0.1100	1.5814	0.1164
257.9482	1.9767	0.1407	1.9418	0.1364	1.9105	0.1376	1.5422	0.1093	1.5340	0.1101	1.5811	0.1164
257.9814	1.9935	0.1408	1.9282	0.1365	1.9366	0.1377	1.5126	0.1094	1.5805	0.1101	1.6211	0.1165
258.0147	1.9880	0.1409	1.9217	0.1366	1.9456	0.1377	1.5531	0.1094	1.5319	0.1102	1.6486	0.1165
258.0479	1.9760	0.1409	1.9136	0.1366	1.9127	0.1378	1.5573	0.1095	1.5204	0.1102	1.6281	0.1166
258.0806	2.0199	0.1410	1.9239	0.1367	1.9226	0.1379	1.5011	0.1095	1.5536	0.1103	1.6288	0.1166
258.1139	1.9734	0.1411	1.8785	0.1368	1.9345	0.1379	1.4984	0.1096	1.4921	0.1103	1.6838	0.1167
258.1471	1.9581	0.1411	1.9081	0.1368	1.9388	0.1380	1.5403	0.1096	1.5885	0.1104	1.6197	0.1167
258.1803	1.9964	0.1412	1.9175	0.1369	1.9266	0.1380	1.5489	0.1097	1.5561	0.1105	1.5987	0.1168
258.2135	1.9695	0.1412	1.9064	0.1369	1.9491	0.1381	1.5185	0.1097	1.5456	0.1105	1.6199	0.1169
258.2463	1.9636	0.1413	1.9188	0.1370	1.9371	0.1382	1.5394	0.1098	1.5808	0.1105	1.6275	0.1169
258.2795	1.9870	0.1414	1.9307	0.1371	1.9584	0.1382	1.5614	0.1098	1.5124	0.1106	1.6383	0.1169
258.3128	1.9443	0.1414	1.9131	0.1371	1.9287	0.1383	1.5224	0.1099	1.5713	0.1106	1.6242	0.1170
258.3455	1.9801	0.1415	1.9158	0.1372	1.9090	0.1383	1.4949	0.1099	1.5240	0.1107	1.6927	0.1171
258.3788	1.9702	0.1416	1.8984	0.1373	1.8980	0.1384	1.5669	0.1100	1.5604	0.1107	1.6129	0.1171
258.4120	1.9520	0.1416	1.8940	0.1373	1.8999	0.1385	1.5138	0.1100	1.5809	0.1108	1.6147	0.1172
258.4453	1.9767	0.1417	1.9208	0.1374	1.9604	0.1385	1.5314	0.1101	1.5309	0.1109	1.6120	0.1172
258.4780	1.9542	0.1418	1.9013	0.1374	1.9649	0.1386	1.5803	0.1101	1.5701	0.1109	1.6414	0.1173
258.5112	1.9964	0.1418	1.9315	0.1375	1.9241	0.1387	1.5251	0.1102	1.5042	0.1109	1.6208	0.1173
258.5444	1.9917	0.1419	1.9239	0.1376	1.9510	0.1387	1.5127	0.1102	1.5615	0.1110	1.6373	0.1174
258.5776	1.9672	0.1420	1.9221	0.1376	1.9394	0.1388	1.5396	0.1103	1.5495	0.1110	1.6422	0.1174
258.6109	1.9670	0.1420	1.9650	0.1377	1.9372	0.1389	1.5205	0.1103	1.5301	0.1111	1.6405	0.1175
258.6436	1.9706	0.1421	1.9132	0.1378	1.8980	0.1389	1.5041	0.1104	1.5955	0.1111	1.6112	0.1175
258.6769	1.9732	0.1422	1.9121	0.1378	1.9188	0.1390	1.5544	0.1104	1.5317	0.1112	1.6148	0.1176
258.7102	2.0032	0.1422	1.8892	0.1379	1.9352	0.1390	1.5519	0.1105	1.5870	0.1113	1.6632	0.1177
258.7429	1.9899	0.1423	1.8943	0.1379	1.9643	0.1391	1.5028	0.1105	1.5264	0.1113	1.6402	0.1177
258.7762	2.0045	0.1424	1.8864	0.1380	1.9422	0.1392	1.5059	0.1106	1.5404	0.1114	1.6106	0.1177
258.8094	1.9981	0.1424	1.9159	0.1381	1.9412	0.1392	1.5677	0.1106	1.5581	0.1114	1.6566	0.1178
258.8426	1.9667	0.1425	1.9043	0.1381	1.9508	0.1393	1.5278	0.1107	1.5390	0.1115	1.6795	0.1179
258.8754	1.9833	0.1426	1.9392	0.1382	1.9500	0.1394	1.5459	0.1107	1.5823	0.1115	1.6037	0.1179
258.9086	1.9630	0.1426	1.9266	0.1383	1.9858	0.1394	1.5666	0.1108	1.5499	0.1116	1.6129	0.1180
258.9419	1.9624	0.1427	1.9272	0.1383	1.9199	0.1395	1.5168	0.1108	1.5684	0.1116	1.6213	0.1180
258.9751	1.9746	0.1427	1.9150	0.1384	1.9291	0.1396	1.5387	0.1109	1.5326	0.1117	1.6346	0.1181
259.0078	1.9716	0.1428	1.9008	0.1385	1.9201	0.1396	1.5512	0.1109	1.5196	0.1117	1.6189	0.1181
259.0410	1.9663	0.1429	1.9045	0.1385	1.9285	0.1397	1.5562	0.1110	1.5939	0.1118	1.6597	0.1182
259.0743	1.9713	0.1429	1.9245	0.1386	1.9080	0.1398	1.5445	0.1110	1.5526	0.1118	1.6805	0.1182
259.1075	1.9938	0.1430	1.9250	0.1386	1.9381	0.1398	1.5434	0.1111	1.6042	0.1119	1.6185	0.1183
259.1403	1.9650	0.1431	1.9200	0.1387	1.9350	0.1399	1.5782	0.1111	1.5410	0.1119	1.6154	0.1183
259.1735	2.0038	0.1431	1.9094	0.1388	1.9511	0.1399	1.5155	0.1112	1.5609	0.1120	1.6068	0.1184
259.2068	1.9689	0.1432	1.8968	0.1388	1.9321	0.1400	1.5350	0.1113	1.5506	0.1120	1.6548	0.1185
259.2395	1.9659	0.1433	1.9301	0.1389	1.9782	0.1401	1.5426	0.1113	1.5434	0.1121	1.6249	0.1185
259.2727	1.9966	0.1433	1.9162	0.1389	1.9412	0.1401	1.5399	0.1114	1.5741	0.1121	1.6463	0.1186
259.3060	1.9662	0.1434	1.9072	0.1390	1.9268	0.1402	1.5301	0.1114	1.5512	0.1122	1.6399	0.1186
259.3393	1.9948	0.1435	1.9230	0.1391	1.9276	0.1403	1.5638	0.1114	1.5814	0.1122	1.6258	0.1187
259.3720	1.9820	0.1435	1.8993	0.1391	1.9458	0.1403	1.5091	0.1115	1.5503	0.1123	1.6375	0.1187
259.4052	1.9811	0.1436	1.8482	0.1392	1.9173	0.1404	1.5097	0.1115	1.5187	0.1123	1.6006	0.1188
259.4384	1.9892	0.1436	1.8906	0.1393	1.9343	0.1404	1.5268	0.1116	1.5648	0.1124	1.6678	0.1188
259.4717	1.9837	0.1437	1.9053	0.1393	1.9173	0.1405	1.5403	0.1116	1.5193	0.1124	1.5956	0.1189
259.5044	1.9930	0.1438	1.9037	0.1394	1.9353	0.1406	1.5448	0.1117	1.5767	0.1125	1.6437	0.1190
259.5376	1.9966	0.1439	1.8866	0.1394	1.9882	0.1406	1.5607	0.1117	1.5545	0.1125	1.6622	0.1190
259.5708	1.9936	0.1439	1.8797	0.1395	1.9550	0.1407	1.5626	0.1118	1.5487	0.1126	1.6569	0.1190
259.6041	1.9719	0.1440	1.9428	0.1396	1.9275	0.1408	1.5016	0.1119	1.5833	0.1126	1.6135	0.1191
259.6368	1.9844	0.1440	1.8922	0.1396	1.9371	0.1408	1.4927	0.1119	1.5215	0.1127	1.5967	0.1192
259.6700	1.9655	0.1441	1.8969	0.1397	1.9247	0.1409	1.5571	0.1119	1.5716	0.1127	1.6511	0.1192
259.7033	1.9510	0.1442	1.9290	0.1398	1.9210	0.1410	1.5086	0.1120	1.5279	0.1128	1.6208	0.1193
259.7365	1.9550	0.1442	1.8953	0.1398	1.9158	0.1410	1.5560	0.1120	1.5677	0.1128	1.6370	0.1193
259.7692	1.9126	0.1443	1.9158	0.1399	1.9133	0.1411	1.5660	0.1121	1.5688	0.1129	1.6750	0.1194
259.8025	1.9591	0.1444	1.8981	0.1399	1.9423	0.1411	1.5132	0.1121	1.5398	0.1129	1.6595	0.1194
259.8357	1.9619	0.1444	1.9268	0.1400	1.9324	0.1412	1.5108	0.1122	1.5647	0.1130	1.6120	0.1195
259.8689	1.9543	0.1445	1.9235	0.1401	1.9276	0.1413	1.5392	0.1123	1.4978	0.1130	1.5817	0.1195
259.9017	1.9866	0.1446	1.9403	0.1401	1.9080	0.1413	1.5164	0.1123	1.5340	0.1131	1.6465	0.1196
259.9349	1.9716	0.1446	1.9009	0.1402	1.9159	0.1414	1.5188	0.1123	1.5638	0.1131	1.6469	0.1196
259.9682	1.9675	0.1447	1.9058	0.1403	1.9265	0.1415	1.5647	0.1124	1.5411	0.1132	1.6190	0.1197
260.0014	1.9623	0.1448	1.8696	0.1403	1.9096	0.1415	1.5408	0.1124	1.5666	0.1132	1.6247	0.1197
260.0341	1.9614	0.1448	1.9064	0.1404	1.9154	0.1416	1.4970	0.1125	1.5259	0.1133	1.6474	0.1198
260.0674	1.9726	0.1449	1.8741	0.1404	1.9351	0.1417	1.5239	0.1125	1.5347	0.1133	1.6188	0.1198
260.1007	1.9776	0.1450	1.8660	0.1405	1.9353	0.1417	1.5587	0.1126	1.5616	0.1134	1.6272	0.1199
260.1334	1.9616	0.1450	1.8990	0.1406	1.9125	0.1418	1.5157	0.1127	1.5072	0.1134	1.6167	0.1200
260.1666	1.9632	0.1451	1.8719	0.1406	1.9493	0.1418	1.5378	0.1127	1.5736	0.1135	1.6116	0.1200
260.1999	1.9672	0.1451	1.8984	0.1407	1.9056	0.1419	1.5499	0.1128	1.5607	0.1135	1.6201	0.1201
260.2331	1.9705	0.1452	1.9049	0.1408	1.9178	0.1420	1.4815	0.1128	1.5381	0.1136	1.6303	0.1201
260.2658	1.9785	0.1453	1.8918	0.1408	1.9179	0.1420	1.5218	0.1129	1.5577	0.1137	1.6494	0.1202
260.2990	1.9669	0.1453	1.8769	0.1409	1.8889	0.1421	1.5573	0.1129	1.5058	0.1137	1.6263	0.1202
260.3323	1.9634	0.1454	1.9112	0.1409	1.9117	0.1421	1.5061	0.1129	1.5850	0.1138	1.6317	0.1203
260.3655	1.9630	0.1455	1.8871	0.1410	1.9304	0.1422	1.5340	0.1130	1.5027	0.1138	1.6190	0.1203
260.3987	1.9197	0.1455	1.8995	0.1411	1.9257	0.1423	1.5598	0.1130	1.5470	0.1139	1.6396	0.1204
260.4314	1.9684	0.1456	1.9145	0.1411	1.9259	0.1423	1.5149	0.1131	1.5579	0.1139	1.6085	0.1204
260.4646	1.9449	0.1457	1.8945	0.1412	1.9046	0.1424	1.5047	0.1131	1.5381	0.1139	1.6735	0.1205
260.4979	1.9653	0.1457	1.9003	0.1412	1.9116	0.1425	1.5572	0.1132	1.5777	0.1140	1.5994	0.1206
260.5311	1.9466	0.1458	1.9131	0.1413	1.9228	0.1425	1.5177	0.1132	1.5500	0.1141	1.6449	0.1206
260.5638	1.9611	0.1459	1.8782	0.1414	1.9146	0.1426	1.5264	0.1133	1.5320	0.1141	1.6033	0.1206
260.5970	1.9877	0.1459	1.8866	0.1414	1.9108	0.1427	1.5220	0.1133	1.6019	0.1142	1.5871	0.1207
260.6303	1.9531	0.1460	1.8870	0.1415	1.9150	0.1427	1.5567	0.1134	1.5041	0.1142	1.6480	0.1208
260.6635	1.9503	0.1461	1.8684	0.1416	1.8917	0.1428	1.5122	0.1135	1.5941	0.1143	1.5995	0.1208
260.6963	1.9685	0.1461	1.9040	0.1416	1.9517	0.1429	1.5001	0.1135	1.5210	0.1143	1.6819	0.1209
260.7295	1.9503	0.1462	1.8638	0.1417	1.9428	0.1429	1.5415	0.1135	1.5350	0.1144	1.6035	0.1209
260.7628	1.9553	0.1462	1.8980	0.1418	1.9232	0.1430	1.5087	0.1136	1.5233	0.1144	1.6555	0.1210
260.7960	1.9619	0.1463	1.8775	0.1418	1.9103	0.1431	1.5321	0.1137	1.5551	0.1144	1.5849	0.1210
260.8287	1.9744	0.1464	1.8894	0.1419	1.8703	0.1431	1.5593	0.1137	1.5660	0.1145	1.6059	0.1211
260.8620	1.9536	0.1464	1.8972	0.1419	1.9229	0.1432	1.5107	0.1138	1.5245	0.1145	1.6268	0.1211
260.8953	1.9805	0.1465	1.9012	0.1420	1.8969	0.1432	1.5050	0.1138	1.5933	0.1146	1.6087	0.1212
260.9280	1.9581	0.1466	1.9018	0.1421	1.9103	0.1433	1.5521	0.1139	1.5418	0.1147	1.6712	0.1212
260.9613	1.9566	0.1466	1.8865	0.1421	1.8984	0.1434	1.5289	0.1139	1.4992	0.1147	1.6055	0.1213
260.9946	1.9596	0.1467	1.9022	0.1422	1.8984	0.1434	1.5160	0.1139	1.5656	0.1148	1.6803	0.1213
261.0273	1.9696	0.1468	1.8952	0.1422	1.9089	0.1435	1.5624	0.1140	1.5548	0.1148	1.5828	0.1214
261.0605	1.9543	0.1468	1.9086	0.1423	1.9327	0.1435	1.4978	0.1140	1.5314	0.1149	1.6331	0.1215
261.0938	1.9490	0.1469	1.8895	0.1424	1.9043	0.1436	1.5203	0.1141	1.5739	0.1149	1.6355	0.1215
261.1270	1.9484	0.1469	1.9121	0.1424	1.9246	0.1437	1.5010	0.1141	1.5373	0.1150	1.6182	0.1216
261.1597	1.9370	0.1470	1.8886	0.1425	1.9244	0.1437	1.5030	0.1142	1.5630	0.1150	1.6566	0.1216
261.1929	1.9646	0.1471	1.8895	0.1426	1.8898	0.1438	1.5056	0.1142	1.5120	0.1151	1.6003	0.1217
261.2262	1.9550	0.1472	1.8791	0.1426	1.9216	0.1439	1.5417	0.1143	1.5425	0.1151	1.6329	0.1217
261.2595	1.9634	0.1472	1.8912	0.1427	1.9511	0.1439	1.5221	0.1144	1.5398	0.1152	1.5658	0.1218
261.2922	1.9506	0.1473	1.8954	0.1427	1.9478	0.1440	1.4730	0.1144	1.5218	0.1152	1.6495	0.1218
261.3254	1.9717	0.1473	1.8754	0.1428	1.8989	0.1440	1.5247	0.1144	1.5787	0.1153	1.6336	0.1219
261.3586	1.9614	0.1474	1.8731	0.1429	1.8932	0.1441	1.5209	0.1145	1.4935	0.1153	1.6199	0.1219
261.3919	1.9659	0.1475	1.9260	0.1429	1.9112	0.1442	1.5399	0.1145	1.5328	0.1154	1.6629	0.1220
261.4246	1.9666	0.1475	1.9025	0.1430	1.9078	0.1442	1.5510	0.1146	1.5580	0.1154	1.6066	0.1220
261.4578	1.9703	0.1476	1.8678	0.1431	1.9012	0.1443	1.5536	0.1147	1.5141	0.1155	1.6384	0.1221
261.4910	1.9583	0.1477	1.9025	0.1431	1.9221	0.1444	1.4943	0.1147	1.5406	0.1155	1.5656	0.1221
261.5243	1.9920	0.1477	1.8759	0.1432	1.9040	0.1444	1.4853	0.1148	1.5687	0.1156	1.6364	0.1222
261.5571	1.9737	0.1478	1.8984	0.1432	1.9001	0.1445	1.5240	0.1148	1.5257	0.1156	1.6123	0.1222
261.5903	1.9618	0.1479	1.9063	0.1433	1.9291	0.1446	1.5068	0.1148	1.5102	0.1157	1.6342	0.1223
261.6235	1.9481	0.1479	1.8910	0.1434	1.8987	0.1446	1.5428	0.1149	1.5154	0.1157	1.6535	0.1223
261.6568	1.9667	0.1480	1.9191	0.1435	1.8891	0.1447	1.5604	0.1149	1.5287	0.1158	1.5958	0.1224
261.6896	1.9625	0.1480	1.9273	0.1435	1.9443	0.1447	1.4867	0.1150	1.5400	0.1158	1.6314	0.1225
261.7228	1.9568	0.1481	1.9176	0.1436	1.9222	0.1448	1.4913	0.1150	1.5462	0.1159	1.5771	0.1225
261.7561	1.9334	0.1482	1.8859	0.1436	1.9099	0.1449	1.5222	0.1151	1.5504	0.1159	1.6433	0.1226
261.7888	1.9632	0.1482	1.8932	0.1437	1.9242	0.1449	1.5364	0.1151	1.5215	0.1160	1.6080	0.1226
261.8221	1.9469	0.1483	1.8793	0.1438	1.9316	0.1450	1.5307	0.1152	1.5201	0.1160	1.6288	0.1227
261.8553	1.9496	0.1484	1.8984	0.1438	1.9268	0.1451	1.5673	0.1152	1.5278	0.1161	1.6342	0.1227
261.8886	1.9521	0.1484	1.8715	0.1439	1.9646	0.1451	1.5347	0.1153	1.5540	0.1161	1.6603	0.1228
261.9213	1.9741	0.1485	1.9024	0.1439	1.9183	0.1452	1.4995	0.1153	1.5356	0.1162	1.6188	0.1229
261.9546	1.9510	0.1485	1.9012	0.1440	1.9064	0.1452	1.4972	0.1154	1.5724	0.1162	1.5800	0.1229
261.9879	1.9509	0.1486	1.8952	0.1441	1.9152	0.1453	1.5192	0.1154	1.5778	0.1163	1.6389	0.1230
262.0206	1.9427	0.1487	1.8952	0.1441	1.9148	0.1454	1.5317	0.1155	1.5262	0.1163	1.5986	0.1230
262.0539	1.9625	0.1487	1.8633	0.1442	1.9000	0.1454	1.5523	0.1155	1.5182	0.1164	1.6364	0.1231
262.0871	1.9631	0.1488	1.8740	0.1443	1.8835	0.1455	1.5364	0.1156	1.5361	0.1164	1.6361	0.1231
262.1204	1.9472	0.1489	1.8917	0.1443	1.9082	0.1456	1.4793	0.1156	1.5173	0.1165	1.6780	0.1232
262.1531	1.9861	0.1489	1.8815	0.1444	1.9120	0.1456	1.4930	0.1157	1.5107	0.1165	1.5700	0.1232
262.1863	1.9770	0.1490	1.8868	0.1444	1.9170	0.1457	1.5241	0.1157	1.5404	0.1166	1.6078	0.1233
262.2196	1.9680	0.1491	1.9107	0.1445	1.9438	0.1458	1.5179	0.1158	1.5344	0.1166	1.6010	0.1233
262.2528	1.9861	0.1491	1.9022	0.1446	1.8937	0.1458	1.5323	0.1158	1.5172	0.1167	1.6197	0.1234
262.2855	1.9375	0.1492	1.9137	0.1446	1.9245	0.1459	1.5749	0.1159	1.5163	0.1167	1.6227	0.1234
262.3188	1.9411	0.1493	1.9181	0.1447	1.9056	0.1459	1.4872	0.1159	1.5484	0.1168	1.6023	0.1235
262.3520	1.9328	0.1493	1.8782	0.1447	1.8794	0.1460	1.5166	0.1160	1.5359	0.1168	1.6844	0.1235
262.3853	1.9230	0.1494	1.9043	0.1448	1.9364	0.1461	1.5449	0.1160	1.5245	0.1169	1.5817	0.1236
262.4181	1.9688	0.1494	1.8831	0.1449	1.9165	0.1461	1.5118	0.1161	1.5862	0.1169	1.5856	0.1236
262.4513	1.9409	0.1495	1.8747	0.1449	1.9421	0.1462	1.5157	0.1161	1.5035	0.1170	1.6130	0.1237
262.4846	1.9258	0.1496	1.8823	0.1450	1.8906	0.1462	1.5601	0.1162	1.5042	0.1170	1.6125	0.1237
262.5178	1.9862	0.1497	1.8731	0.1451	1.8994	0.1463	1.4991	0.1162	1.5157	0.1171	1.5820	0.1238
262.5505	1.9547	0.1497	1.8726	0.1451	1.8918	0.1464	1.5022	0.1163	1.5383	0.1171	1.6272	0.1239
262.5838	1.9625	0.1498	1.8964	0.1452	1.8854	0.1464	1.5082	0.1163	1.4986	0.1172	1.6410	0.1239
262.6171	1.9612	0.1498	1.8807	0.1452	1.8877	0.1465	1.5232	0.1164	1.5436	0.1172	1.5660	0.1240
262.6498	1.9415	0.1499	1.8597	0.1453	1.9018	0.1466	1.4990	0.1164	1.5430	0.1173	1.5890	0.1240
262.6830	1.9385	0.1500	1.8488	0.1454	1.8947	0.1466	1.5533	0.1165	1.4850	0.1173	1.6225	0.1241
262.7163	1.9466	0.1500	1.8745	0.1454	1.9190	0.1467	1.5233	0.1165	1.5064	0.1174	1.5747	0.1241
262.7495	1.9541	0.1501	1.8926	0.1455	1.9151	0.1468	1.4815	0.1166	1.5445	0.1174	1.5868	0.1242
262.7822	1.9713	0.1502	1.8965	0.1456	1.8779	0.1468	1.4954	0.1166	1.5196	0.1175	1.6105	0.1242
262.8155	1.9368	0.1502	1.8785	0.1456	1.8792	0.1469	1.5164	0.1167	1.5212	0.1175	1.6334	0.1243
262.8487	1.9410	0.1503	1.8780	0.1457	1.9087	0.1469	1.5120	0.1167	1.5671	0.1176	1.5931	0.1243
262.8819	1.9672	0.1504	1.8861	0.1457	1.9010	0.1470	1.5348	0.1168	1.4951	0.1176	1.6015	0.1244
262.9146	1.9434	0.1504	1.8697	0.1458	1.9191	0.1471	1.5405	0.1168	1.4809	0.1177	1.6273	0.1244
262.9479	1.9336	0.1505	1.8740	0.1459	1.8897	0.1471	1.4576	0.1169	1.5419	0.1177	1.6026	0.1245
262.9811	1.9302	0.1505	1.8557	0.1459	1.9222	0.1472	1.5131	0.1169	1.5337	0.1178	1.6003	0.1245
263.0144	1.9288	0.1506	1.8729	0.1460	1.9329	0.1472	1.5131	0.1170	1.5337	0.1178	1.6010	0.1246
263.0471	1.9266	0.1507	1.8740	0.1461	1.8794	0.1473	1.4964	0.1170	1.5289	0.1179	1.6216	0.1246
263.0804	1.9478	0.1507	1.8709	0.1461	1.8850	0.1474	1.5197	0.1171	1.5340	0.1179	1.5635	0.1247
263.1136	1.9351	0.1508	1.8733	0.1462	1.8964	0.1474	1.5657	0.1171	1.4828	0.1180	1.5843	0.1247
263.1469	1.9584	0.1509	1.8854	0.1462	1.8760	0.1475	1.4900	0.1172	1.5082	0.1180	1.6046	0.1248
263.1796	1.9475	0.1509	1.9043	0.1463	1.9045	0.1476	1.4812	0.1172	1.5084	0.1181	1.6227	0.1248
263.2128	1.9260	0.1510	1.8427	0.1464	1.8852	0.1476	1.5124	0.1173	1.5212	0.1181	1.6069	0.1249
263.2460	1.9331	0.1510	1.8458	0.1464	1.8692	0.1477	1.4834	0.1173	1.5394	0.1182	1.6208	0.1250
263.2793	1.9509	0.1511	1.8622	0.1465	1.9012	0.1477	1.4954	0.1174	1.5590	0.1182	1.6241	0.1250
263.3120	1.9543	0.1512	1.8740	0.1465	1.8831	0.1478	1.5328	0.1174	1.4971	0.1183	1.5609	0.1251
263.3452	1.9510	0.1512	1.9043	0.1466	1.8977	0.1479	1.4804	0.1175	1.4930	0.1183	1.5848	0.1251
263.3785	1.9450	0.1513	1.8595	0.1467	1.9147	0.1479	1.4998	0.1175	1.5304	0.1184	1.6309	0.1252
263.4117	1.9347	0.1514	1.8875	0.1467	1.8840	0.1480	1.5239	0.1176	1.5097	0.1184	1.5940	0.1252
263.4445	1.9753	0.1514	1.9020	0.1468	1.8994	0.1481	1.5181	0.1176	1.5166	0.1185	1.6069	0.1253
263.4777	1.9632	0.1515	1.8566	0.1469	1.9034	0.1481	1.4891	0.1177	1.5671	0.1185	1.6377	0.1253
263.5110	1.9349	0.1516	1.8698	0.1469	1.9112	0.1482	1.5629	0.1177	1.5084	0.1186	1.6343	0.1254
263.5442	1.9208	0.1516	1.8756	0.1470	1.9148	0.1482	1.4663	0.1178	1.4889	0.1186	1.5720	0.1254
263.5770	1.9321	0.1517	1.8549	0.1470	1.8977	0.1483	1.5055	0.1178	1.5122	0.1187	1.6166	0.1255
263.6102	1.9279	0.1518	1.8575	0.1471	1.8930	0.1484	1.5279	0.1179	1.5193	0.1187	1.6405	0.1255
263.6435	1.9130	0.1518	1.8662	0.1472	1.9023	0.1484	1.4981	0.1179	1.5292	0.1188	1.6109	0.1256
263.6762	1.9335	0.1519	1.8502	0.1472	1.8652	0.1485	1.5083	0.1180	1.5304	0.1188	1.6066	0.1256
263.7095	1.9495	0.1519	1.8733	0.1473	1.9026	0.1485	1.5426	0.1180	1.5662	0.1189	1.6236	0.1257
263.7428	1.9282	0.1520	1.8652	0.1473	1.9075	0.1486	1.4916	0.1181	1.4796	0.1189	1.5893	0.1257
263.7755	1.9418	0.1521	1.8700	0.1474	1.8919	0.1487	1.4815	0.1181	1.5050	0.1190	1.5559	0.1258
263.8087	1.9175	0.1521	1.8900	0.1475	1.9015	0.1487	1.4987	0.1182	1.5235	0.1190	1.5919	0.1258
263.8420	1.9365	0.1522	1.8689	0.1475	1.8733	0.1488	1.4736	0.1182	1.5020	0.1191	1.6129	0.1259
263.8753	1.9154	0.1523	1.8773	0.1476	1.8802	0.1489	1.5083	0.1183	1.5154	0.1191	1.5890	0.1260
263.9080	1.9398	0.1523	1.8802	0.1476	1.9116	0.1489	1.5284	0.1183	1.5758	0.1192	1.6197	0.1260
263.9413	1.9300	0.1524	1.8774	0.1477	1.8794	0.1490	1.4563	0.1184	1.4865	0.1192	1.6377	0.1260
263.9745	1.9229	0.1524	1.8767	0.1478	1.9223	0.1491	1.4644	0.1184	1.4721	0.1193	1.6059	0.1261
264.0078	1.9223	0.1525	1.9031	0.1478	1.8906	0.1491	1.5012	0.1185	1.5099	0.1193	1.5588	0.1262
264.0405	1.9425	0.1526	1.8441	0.1479	1.8931	0.1492	1.5044	0.1185	1.4914	0.1194	1.6008	0.1262
264.0738	1.9503	0.1526	1.8497	0.1479	1.8848	0.1492	1.4932	0.1186	1.5124	0.1194	1.5941	0.1263
264.1070	1.9182	0.1527	1.8520	0.1480	1.8893	0.1493	1.5388	0.1186	1.5390	0.1195	1.5884	0.1263
264.1398	1.9099	0.1527	1.8591	0.1481	1.8640	0.1494	1.4869	0.1187	1.5133	0.1195	1.6036	0.1264
264.1730	1.9149	0.1528	1.8597	0.1481	1.8894	0.1494	1.4657	0.1187	1.4766	0.1196	1.6222	0.1264
264.2062	1.9205	0.1529	1.8297	0.1482	1.8963	0.1495	1.4749	0.1188	1.5245	0.1196	1.5651	0.1265
264.2395	1.9191	0.1530	1.8861	0.1483	1.8982	0.1495	1.4749	0.1188	1.5375	0.1197	1.5668	0.1265
264.2722	1.8914	0.1530	1.9117	0.1483	1.8890	0.1496	1.5015	0.1189	1.5009	0.1197	1.6215	0.1266
264.3054	1.9114	0.1531	1.8477	0.1484	1.9011	0.1497	1.5524	0.1189	1.5375	0.1198	1.5899	0.1266
264.3388	1.9413	0.1531	1.8525	0.1484	1.9068	0.1497	1.4762	0.1190	1.5438	0.1198	1.5956	0.1267
264.3715	1.9331	0.1532	1.8488	0.1485	1.8754	0.1498	1.4595	0.1190	1.4962	0.1199	1.5974	0.1267
264.4048	1.9276	0.1533	1.8753	0.1485	1.8695	0.1499	1.4797	0.1191	1.5069	0.1199	1.5846	0.1268
264.4380	1.9252	0.1533	1.8584	0.1486	1.9048	0.1499	1.4850	0.1191	1.5207	0.1200	1.5616	0.1268
264.4712	1.9073	0.1534	1.8692	0.1487	1.8898	0.1500	1.4894	0.1192	1.5055	0.1200	1.5531	0.1269
264.5040	1.9359	0.1535	1.9092	0.1487	1.9169	0.1500	1.5354	0.1192	1.4901	0.1201	1.6112	0.1270
264.5373	1.9291	0.1535	1.8868	0.1488	1.9217	0.1501	1.4698	0.1193	1.5707	0.1201	1.5637	0.1270
264.5705	1.9388	0.1536	1.8364	0.1489	1.9516	0.1502	1.4538	0.1193	1.4949	0.1202	1.6094	0.1270
264.6032	1.9606	0.1537	1.8610	0.1489	1.8895	0.1502	1.5041	0.1194	1.4990	0.1202	1.6271	0.1271
264.6365	1.9658	0.1537	1.8444	0.1490	1.8945	0.1503	1.5067	0.1194	1.5122	0.1202	1.5682	0.1272
264.6697	1.9044	0.1538	1.8677	0.1491	1.8861	0.1504	1.4940	0.1195	1.5409	0.1203	1.5884	0.1272
264.7030	1.9092	0.1538	1.8597	0.1491	1.8686	0.1504	1.5237	0.1195	1.5105	0.1203	1.5785	0.1273
264.7357	1.9245	0.1539	1.8829	0.1492	1.8903	0.1505	1.4817	0.1196	1.5282	0.1204	1.6060	0.1273
264.7689	1.9216	0.1540	1.8578	0.1492	1.8801	0.1505	1.4817	0.1196	1.5060	0.1205	1.5730	0.1274
264.8022	1.9217	0.1540	1.8954	0.1493	1.9023	0.1506	1.4985	0.1197	1.4818	0.1205	1.6010	0.1274
264.8354	1.9153	0.1541	1.8490	0.1494	1.9090	0.1507	1.5001	0.1197	1.5014	0.1206	1.5969	0.1275
264.8681	1.8999	0.1542	1.8665	0.1494	1.8775	0.1507	1.5063	0.1197	1.5172	0.1206	1.5809	0.1275
264.9013	1.9057	0.1542	1.8415	0.1495	1.8814	0.1508	1.5179	0.1198	1.5031	0.1206	1.5904	0.1276
264.9346	1.9201	0.1543	1.8453	0.1495	1.8797	0.1509	1.4738	0.1198	1.5187	0.1207	1.5762	0.1276
264.9678	1.9111	0.1543	1.8611	0.1496	1.8960	0.1509	1.4560	0.1199	1.5396	0.1207	1.6023	0.1277
265.0006	1.9372	0.1544	1.8791	0.1497	1.8782	0.1510	1.4871	0.1199	1.5063	0.1208	1.5803	0.1277
265.0338	1.9190	0.1545	1.8661	0.1497	1.8917	0.1510	1.4713	0.1200	1.4924	0.1209	1.6330	0.1278
265.0671	1.9316	0.1545	1.9083	0.1498	1.9385	0.1511	1.5275	0.1200	1.5429	0.1209	1.6006	0.1278
265.1003	1.9426	0.1546	1.8651	0.1498	1.8800	0.1512	1.5203	0.1201	1.5001	0.1210	1.5718	0.1279
265.1330	1.9222	0.1547	1.8482	0.1499	1.8745	0.1512	1.4742	0.1201	1.5201	0.1210	1.5854	0.1279
265.1662	1.9377	0.1547	1.8497	0.1500	1.8651	0.1513	1.4784	0.1202	1.5498	0.1211	1.6020	0.1280
265.1995	1.9406	0.1548	1.8363	0.1500	1.8703	0.1514	1.4807	0.1202	1.4771	0.1211	1.5967	0.1280
265.2327	1.8930	0.1548	1.8552	0.1501	1.8696	0.1514	1.4673	0.1203	1.4686	0.1211	1.5871	0.1281
265.2654	1.8980	0.1549	1.8585	0.1502	1.8800	0.1515	1.4954	0.1203	1.5278	0.1212	1.6537	0.1281
265.2986	1.9147	0.1550	1.8677	0.1502	1.9102	0.1515	1.5455	0.1204	1.5222	0.1212	1.5355	0.1282
265.3318	1.8855	0.1550	1.8722	0.1503	1.9139	0.1516	1.4666	0.1204	1.5017	0.1213	1.5562	0.1282
265.3651	1.9260	0.1551	1.8467	0.1503	1.8775	0.1517	1.4595	0.1205	1.5654	0.1213	1.5742	0.1283
265.3983	1.9207	0.1552	1.8586	0.1504	1.8877	0.1517	1.4741	0.1205	1.4675	0.1214	1.5930	0.1284
265.4310	1.9100	0.1552	1.8580	0.1505	1.8687	0.1518	1.4810	0.1206	1.4853	0.1215	1.5837	0.1284
265.4642	1.9414	0.1553	1.8512	0.1505	1.8956	0.1519	1.4739	0.1206	1.5070	0.1215	1.6057	0.1285
265.4974	1.9142	0.1553	1.8913	0.1506	1.9038	0.1519	1.5149	0.1207	1.5163	0.1215	1.6377	0.1285
265.5306	1.9092	0.1554	1.8823	0.1506	1.9094	0.1520	1.4679	0.1207	1.5001	0.1216	1.5354	0.1285
265.5634	1.8930	0.1555	1.8717	0.1507	1.8859	0.1520	1.4490	0.1208	1.5363	0.1216	1.5652	0.1286
265.5966	1.9011	0.1555	1.8791	0.1508	1.8762	0.1521	1.5228	0.1208	1.5048	0.1217	1.6021	0.1287
265.6299	1.9245	0.1556	1.8186	0.1508	1.8901	0.1522	1.4809	0.1209	1.4760	0.1217	1.5792	0.1287
265.6631	1.9070	0.1557	1.8534	0.1509	1.8773	0.1522	1.4900	0.1209	1.4889	0.1218	1.5733	0.1288
265.6959	1.9353	0.1557	1.8417	0.1510	1.8937	0.1523	1.5270	0.1210	1.5253	0.1218	1.5886	0.1288
265.7291	1.9549	0.1558	1.8284	0.1510	1.8736	0.1523	1.4668	0.1210	1.5153	0.1219	1.5974	0.1289
265.7624	1.9197	0.1559	1.8369	0.1511	1.8689	0.1524	1.4438	0.1211	1.5250	0.1219	1.5476	0.1289
265.7956	1.8870	0.1559	1.8435	0.1511	1.8563	0.1525	1.4958	0.1211	1.5441	0.1220	1.5962	0.1290
265.8283	1.9084	0.1560	1.8543	0.1512	1.8964	0.1525	1.4954	0.1211	1.4894	0.1220	1.5960	0.1290
265.8615	1.8816	0.1560	1.8638	0.1512	1.8880	0.1526	1.4935	0.1212	1.4921	0.1221	1.5860	0.1291
265.8948	1.9043	0.1561	1.8316	0.1513	1.8551	0.1527	1.5576	0.1212	1.5190	0.1221	1.6077	0.1291
265.9280	1.9145	0.1562	1.8786	0.1514	1.8832	0.1527	1.4484	0.1213	1.4965	0.1222	1.6165	0.1292
265.9607	1.8953	0.1562	1.8652	0.1515	1.8647	0.1528	1.4714	0.1213	1.5238	0.1222	1.6008	0.1292
265.9939	1.9171	0.1563	1.8745	0.1515	1.8770	0.1528	1.4937	0.1214	1.5618	0.1223	1.5442	0.1293
266.0272	1.9335	0.1563	1.8498	0.1516	1.8926	0.1529	1.5084	0.1215	1.5067	0.1223	1.5893	0.1294
266.0605	1.8905	0.1564	1.8617	0.1516	1.8700	0.1530	1.4921	0.1215	1.4869	0.1224	1.5899	0.1294
266.0932	1.9182	0.1565	1.8803	0.1517	1.9183	0.1530	1.5121	0.1215	1.5325	0.1224	1.5722	0.1295
266.1264	1.8969	0.1565	1.8741	0.1517	1.8834	0.1531	1.4883	0.1216	1.5141	0.1225	1.6248	0.1295
266.1596	1.9362	0.1566	1.8673	0.1518	1.8560	0.1531	1.4530	0.1216	1.5168	0.1225	1.6097	0.1295
266.1929	1.9223	0.1567	1.8551	0.1519	1.8510	0.1532	1.5001	0.1217	1.5512	0.1226	1.5506	0.1296
266.2256	1.9078	0.1567	1.8539	0.1519	1.8567	0.1533	1.4776	0.1217	1.4882	0.1226	1.5381	0.1297
266.2588	1.9515	0.1568	1.8423	0.1520	1.8573	0.1533	1.5214	0.1218	1.4839	0.1227	1.6215	0.1297
266.2920	1.9344	0.1569	1.8745	0.1520	1.8718	0.1534	1.5166	0.1218	1.4887	0.1227	1.5718	0.1298
266.3253	1.8919	0.1569	1.8564	0.1521	1.8990	0.1535	1.4617	0.1219	1.5209	0.1228	1.6057	0.1298
266.3580	1.9141	0.1570	1.8702	0.1522	1.8920	0.1535	1.4687	0.1219	1.5083	0.1228	1.6213	0.1299
266.3913	1.9023	0.1570	1.8669	0.1522	1.8603	0.1536	1.4853	0.1220	1.5455	0.1229	1.6075	0.1299
266.4245	1.8809	0.1571	1.8533	0.1523	1.8590	0.1536	1.5045	0.1220	1.5446	0.1229	1.5833	0.1300
266.4578	1.9022	0.1572	1.8737	0.1524	1.8619	0.1537	1.4769	0.1221	1.4865	0.1230	1.5754	0.1300
266.4905	1.9010	0.1572	1.8549	0.1524	1.8464	0.1537	1.5348	0.1221	1.4943	0.1230	1.6177	0.1301
266.5237	1.9351	0.1573	1.8522	0.1525	1.8917	0.1538	1.4538	0.1222	1.5289	0.1231	1.5909	0.1301
266.5569	1.9244	0.1574	1.8638	0.1526	1.8905	0.1539	1.4728	0.1222	1.5361	0.1231	1.5935	0.1302
266.5902	1.8963	0.1574	1.8509	0.1526	1.9087	0.1540	1.5231	0.1223	1.5243	0.1232	1.6145	0.1302
266.6229	1.9203	0.1575	1.8744	0.1527	1.8782	0.1540	1.4725	0.1223	1.5504	0.1232	1.5584	0.1303
266.6562	1.8864	0.1575	1.8535	0.1527	1.8599	0.1541	1.4887	0.1224	1.4845	0.1233	1.5777	0.1303
266.6894	1.8954	0.1576	1.8147	0.1528	1.8493	0.1541	1.5185	0.1224	1.4523	0.1233	1.5802	0.1304
266.7226	1.9355	0.1577	1.8410	0.1529	1.8555	0.1542	1.4549	0.1225	1.5248	0.1234	1.6111	0.1305
266.7553	1.9020	0.1577	1.8622	0.1529	1.8499	0.1543	1.4498	0.1225	1.4913	0.1234	1.5588	0.1305
266.7886	1.9269	0.1578	1.8418	0.1530	1.9016	0.1543	1.5053	0.1226	1.5056	0.1235	1.6040	0.1305
266.8218	1.9307	0.1579	1.8643	0.1530	1.9029	0.1544	1.4821	0.1226	1.5412	0.1235	1.5964	0.1306
266.8551	1.8928	0.1579	1.8495	0.1531	1.8589	0.1544	1.4948	0.1227	1.4901	0.1236	1.5675	0.1306
266.8879	1.9280	0.1580	1.8852	0.1532	1.8805	0.1545	1.5348	0.1227	1.4982	0.1236	1.5845	0.1307
266.9211	1.8798	0.1580	1.8467	0.1532	1.8621	0.1545	1.4756	0.1227	1.5145	0.1237	1.5995	0.1308
266.9543	1.8871	0.1581	1.8337	0.1533	1.8903	0.1546	1.4657	0.1228	1.5046	0.1237	1.5696	0.1308
266.9871	1.8917	0.1582	1.8412	0.1533	1.8745	0.1547	1.5058	0.1229	1.5243	0.1238	1.5753	0.1309
267.0203	1.8935	0.1582	1.8738	0.1534	1.8748	0.1547	1.4931	0.1229	1.5447	0.1238	1.6387	0.1309
267.0535	1.9223	0.1583	1.8569	0.1535	1.8998	0.1548	1.4948	0.1230	1.5059	0.1239	1.5492	0.1310
267.0867	1.9037	0.1584	1.8573	0.1535	1.8698	0.1549	1.5196	0.1230	1.4798	0.1239	1.5506	0.1310
267.1200	1.8938	0.1584	1.8872	0.1536	1.8861	0.1549	1.4396	0.1231	1.4790	0.1240	1.5805	0.1311
267.1527	1.8998	0.1585	1.8867	0.1537	1.8633	0.1550	1.4927	0.1231	1.5320	0.1240	1.5964	0.1311
267.1860	1.9245	0.1585	1.8369	0.1537	1.8672	0.1551	1.4901	0.1231	1.4801	0.1241	1.5766	0.1312
267.2193	1.9170	0.1586	1.8339	0.1538	1.8413	0.1551	1.4560	0.1232	1.5080	0.1241	1.5826	0.1312
267.2520	1.9160	0.1587	1.8509	0.1538	1.8445	0.1552	1.4887	0.1232	1.5262	0.1242	1.6077	0.1313
267.2852	1.9041	0.1587	1.8311	0.1539	1.8715	0.1552	1.4881	0.1233	1.4686	0.1242	1.5390	0.1313
267.3185	1.9383	0.1588	1.8489	0.1540	1.8975	0.1553	1.4696	0.1233	1.4839	0.1243	1.5440	0.1314
267.3517	1.9083	0.1589	1.8467	0.1540	1.8376	0.1553	1.4661	0.1234	1.4971	0.1243	1.5890	0.1314
267.3844	1.8926	0.1589	1.8583	0.1541	1.8612	0.1554	1.4674	0.1234	1.4889	0.1244	1.5542	0.1315
267.4177	1.9039	0.1590	1.8718	0.1541	1.8629	0.1555	1.4484	0.1235	1.5033	0.1244	1.5719	0.1315
267.4510	1.8786	0.1590	1.8434	0.1542	1.8717	0.1555	1.4956	0.1235	1.5096	0.1245	1.6145	0.1316
267.4837	1.9052	0.1591	1.8486	0.1543	1.8850	0.1556	1.4571	0.1236	1.4760	0.1245	1.5470	0.1316
267.5169	1.9097	0.1592	1.8561	0.1543	1.8644	0.1557	1.4611	0.1236	1.4885	0.1245	1.5295	0.1317
267.5501	1.8829	0.1592	1.8576	0.1544	1.8963	0.1557	1.4681	0.1237	1.5086	0.1246	1.5867	0.1317
267.5834	1.9284	0.1593	1.8698	0.1544	1.8503	0.1558	1.4760	0.1237	1.5041	0.1246	1.5627	0.1318
267.6166	1.8978	0.1594	1.8903	0.1545	1.8401	0.1558	1.4810	0.1238	1.5176	0.1247	1.6010	0.1318
267.6493	1.9195	0.1594	1.8606	0.1545	1.8414	0.1559	1.5195	0.1238	1.5209	0.1247	1.6005	0.1319
267.6825	1.9129	0.1595	1.8529	0.1546	1.8415	0.1560	1.4752	0.1239	1.4725	0.1248	1.6103	0.1320
267.7158	1.9082	0.1595	1.8382	0.1547	1.8338	0.1560	1.4251	0.1239	1.4724	0.1248	1.5495	0.1320
267.7485	1.9022	0.1596	1.8276	0.1547	1.8610	0.1561	1.5070	0.1240	1.5259	0.1249	1.5384	0.1321
267.7817	1.9160	0.1597	1.8583	0.1548	1.8766	0.1562	1.4590	0.1240	1.4927	0.1249	1.5978	0.1321
267.8150	1.9108	0.1598	1.8518	0.1549	1.8717	0.1562	1.4823	0.1241	1.5004	0.1250	1.5517	0.1321
267.8482	1.9502	0.1598	1.8389	0.1549	1.8716	0.1563	1.5432	0.1241	1.5520	0.1250	1.5865	0.1322
267.8809	1.8965	0.1599	1.8631	0.1550	1.8637	0.1563	1.4676	0.1242	1.4679	0.1251	1.6165	0.1323
267.9142	1.8891	0.1599	1.8378	0.1550	1.8632	0.1564	1.4528	0.1242	1.4708	0.1251	1.5523	0.1323
267.9474	1.8964	0.1600	1.8582	0.1551	1.8664	0.1565	1.4882	0.1243	1.5250	0.1252	1.5487	0.1324
267.9806	1.8568	0.1601	1.8582	0.1552	1.8755	0.1565	1.4676	0.1243	1.5003	0.1252	1.5542	0.1324
268.0134	1.9028	0.1601	1.8578	0.1552	1.9061	0.1566	1.4777	0.1244	1.5004	0.1253	1.5834	0.1325
268.0466	1.9065	0.1602	1.8546	0.1553	1.8561	0.1566	1.5132	0.1244	1.5622	0.1253	1.5529	0.1325
268.0798	1.9159	0.1602	1.8594	0.1553	1.8707	0.1567	1.4493	0.1245	1.4781	0.1254	1.5764	0.1326
268.1131	1.9235	0.1603	1.8739	0.1554	1.8581	0.1568	1.4598	0.1245	1.4654	0.1255	1.5592	0.1326
268.1458	1.9164	0.1604	1.8270	0.1555	1.8388	0.1568	1.4968	0.1245	1.4964	0.1255	1.5344	0.1327
268.1791	1.8939	0.1604	1.8243	0.1555	1.8488	0.1569	1.4890	0.1246	1.4891	0.1255	1.5430	0.1327
268.2123	1.9157	0.1605	1.8364	0.1556	1.8574	0.1570	1.5211	0.1246	1.5053	0.1256	1.5789	0.1328
268.2456	1.8917	0.1605	1.8127	0.1556	1.8859	0.1570	1.5226	0.1247	1.5333	0.1256	1.5622	0.1328
268.2783	1.9237	0.1606	1.8062	0.1557	1.8809	0.1571	1.4628	0.1247	1.4718	0.1257	1.5809	0.1329
268.3115	1.9185	0.1607	1.8495	0.1558	1.8619	0.1571	1.4318	0.1248	1.4537	0.1257	1.6422	0.1329
268.3448	1.8905	0.1607	1.8659	0.1558	1.8455	0.1572	1.4646	0.1248	1.5082	0.1258	1.5403	0.1330
268.3780	1.9363	0.1608	1.8691	0.1559	1.8604	0.1573	1.4632	0.1249	1.4942	0.1258	1.5557	0.1330
268.4107	1.9071	0.1609	1.8306	0.1560	1.8788	0.1573	1.5030	0.1249	1.4971	0.1259	1.5960	0.1331
268.4439	1.9127	0.1609	1.8421	0.1560	1.8773	0.1574	1.5030	0.1250	1.5262	0.1259	1.5320	0.1331
268.4772	1.8892	0.1610	1.8434	0.1561	1.9139	0.1574	1.4518	0.1250	1.4735	0.1260	1.5713	0.1332
268.5104	1.9003	0.1610	1.8302	0.1561	1.8522	0.1575	1.4640	0.1251	1.4776	0.1260	1.5946	0.1332
268.5431	1.9043	0.1611	1.8513	0.1562	1.8439	0.1576	1.4881	0.1251	1.4797	0.1261	1.5624	0.1333
268.5764	1.9021	0.1612	1.8481	0.1562	1.8392	0.1576	1.4657	0.1252	1.5058	0.1261	1.5333	0.1333
268.6096	1.9174	0.1613	1.8521	0.1563	1.8671	0.1577	1.5132	0.1252	1.4891	0.1262	1.5771	0.1334
268.6429	1.9269	0.1613	1.8423	0.1564	1.8634	0.1577	1.4955	0.1253	1.5375	0.1262	1.5719	0.1334
268.6757	1.9068	0.1614	1.8225	0.1565	1.8613	0.1578	1.4604	0.1253	1.5007	0.1263	1.5601	0.1335
268.7089	1.8866	0.1614	1.8501	0.1565	1.9007	0.1579	1.4956	0.1254	1.4671	0.1263	1.6097	0.1335
268.7421	1.9065	0.1615	1.8422	0.1566	1.8567	0.1579	1.4757	0.1254	1.4983	0.1264	1.6009	0.1336
268.7754	1.8843	0.1616	1.8299	0.1566	1.8739	0.1580	1.4695	0.1255	1.5251	0.1264	1.5369	0.1336
268.8081	1.9076	0.1616	1.8510	0.1567	1.8620	0.1580	1.4991	0.1255	1.4913	0.1265	1.5527	0.1337
268.8414	1.9128	0.1617	1.8497	0.1567	1.8629	0.1581	1.4607	0.1256	1.5120	0.1265	1.6288	0.1338
268.8746	1.9134	0.1617	1.8383	0.1568	1.8908	0.1582	1.4522	0.1256	1.5169	0.1266	1.5605	0.1338
268.9074	1.9254	0.1618	1.8491	0.1569	1.8968	0.1582	1.4706	0.1257	1.4844	0.1266	1.6089	0.1338
268.9406	1.8742	0.1619	1.8254	0.1569	1.8707	0.1583	1.4896	0.1257	1.4834	0.1267	1.6167	0.1339
268.9739	1.9092	0.1619	1.8341	0.1570	1.9028	0.1584	1.4725	0.1258	1.5189	0.1267	1.5671	0.1340
269.0071	1.8896	0.1620	1.8463	0.1570	1.8452	0.1584	1.5419	0.1258	1.4875	0.1268	1.5301	0.1340
269.0398	1.8636	0.1620	1.8514	0.1571	1.8489	0.1585	1.4744	0.1259	1.5007	0.1268	1.5763	0.1341
269.0731	1.8872	0.1621	1.8768	0.1572	1.8590	0.1585	1.4444	0.1259	1.5149	0.1269	1.5888	0.1341
269.1063	1.9051	0.1622	1.8912	0.1572	1.8413	0.1586	1.5065	0.1260	1.4457	0.1269	1.5607	0.1342
269.1395	1.9104	0.1623	1.8089	0.1573	1.8687	0.1587	1.4510	0.1260	1.5025	0.1270	1.5920	0.1342
269.1723	1.9046	0.1623	1.8375	0.1573	1.8696	0.1587	1.4791	0.1260	1.5163	0.1270	1.6125	0.1343
269.2055	1.8616	0.1624	1.8152	0.1574	1.8650	0.1588	1.5105	0.1261	1.4733	0.1270	1.5386	0.1343
269.2388	1.8885	0.1624	1.8271	0.1575	1.8616	0.1588	1.4627	0.1262	1.5208	0.1271	1.5582	0.1344
269.2720	1.9294	0.1625	1.8327	0.1575	1.8566	0.1589	1.4528	0.1262	1.5228	0.1272	1.5504	0.1344
269.3048	1.9164	0.1626	1.8391	0.1576	1.8718	0.1590	1.4866	0.1263	1.4465	0.1272	1.5788	0.1345
269.3380	1.9212	0.1626	1.8619	0.1577	1.8849	0.1590	1.4768	0.1263	1.4724	0.1273	1.5724	0.1345
269.3713	1.9283	0.1627	1.8284	0.1577	1.8678	0.1591	1.4886	0.1263	1.5119	0.1273	1.6418	0.1346
269.4040	1.9282	0.1627	1.8418	0.1578	1.8906	0.1592	1.5342	0.1264	1.4897	0.1273	1.5502	0.1346
269.4373	1.9198	0.1628	1.8396	0.1578	1.9252	0.1592	1.4625	0.1265	1.4921	0.1274	1.5454	0.1347
269.4705	1.8766	0.1629	1.8683	0.1579	1.8702	0.1593	1.4595	0.1265	1.5593	0.1274	1.5931	0.1347
269.5038	1.8866	0.1629	1.8565	0.1580	1.8608	0.1593	1.4898	0.1265	1.4978	0.1275	1.5990	0.1348
269.5365	1.9125	0.1630	1.8698	0.1580	1.8553	0.1594	1.4935	0.1266	1.4574	0.1275	1.5754	0.1348
269.5698	1.8825	0.1631	1.8668	0.1581	1.8592	0.1595	1.4828	0.1266	1.5199	0.1276	1.5933	0.1349
269.6030	1.8999	0.1631	1.8656	0.1581	1.8502	0.1595	1.5307	0.1267	1.4600	0.1276	1.6239	0.1349
269.6362	1.8714	0.1632	1.8391	0.1582	1.8545	0.1596	1.4490	0.1267	1.5097	0.1277	1.5384	0.1350
269.6689	1.9176	0.1632	1.8472	0.1583	1.8924	0.1596	1.4758	0.1268	1.5343	0.1278	1.5492	0.1350
269.7022	1.8932	0.1633	1.8345	0.1583	1.8509	0.1597	1.4995	0.1268	1.4757	0.1278	1.5873	0.1351
269.7354	1.8990	0.1634	1.8244	0.1584	1.8695	0.1598	1.4714	0.1269	1.4815	0.1278	1.5637	0.1351
269.7686	1.9048	0.1634	1.8390	0.1584	1.8590	0.1598	1.4815	0.1269	1.5279	0.1279	1.5899	0.1352
269.8013	1.9315	0.1635	1.8586	0.1585	1.8436	0.1599	1.5262	0.1270	1.4901	0.1280	1.6036	0.1353
269.8346	1.9033	0.1636	1.8632	0.1585	1.8987	0.1599	1.4646	0.1270	1.4845	0.1280	1.5808	0.1353
269.8679	1.8911	0.1636	1.8360	0.1586	1.8803	0.1600	1.4541	0.1271	1.5381	0.1280	1.5438	0.1353
269.9006	1.9256	0.1637	1.8372	0.1587	1.8921	0.1601	1.5058	0.1271	1.4782	0.1281	1.5921	0.1354
269.9339	1.9285	0.1638	1.8614	0.1588	1.8708	0.1601	1.4714	0.1272	1.4712	0.1281	1.5729	0.1354
269.9671	1.8870	0.1638	1.8509	0.1588	1.8643	0.1602	1.5134	0.1272	1.4813	0.1282	1.5876	0.1355
270.0003	1.8520	0.1639	1.8458	0.1589	1.8449	0.1603	1.5131	0.1273	1.5069	0.1282	1.5688	0.1356
270.0331	1.8979	0.1639	1.8627	0.1589	1.8421	0.1603	1.4514	0.1273	1.4543	0.1283	1.6375	0.1356
270.0664	1.8923	0.1640	1.8949	0.1590	1.8342	0.1604	1.4636	0.1274	1.5248	0.1283	1.5576	0.1357
270.0996	1.8818	0.1640	1.8885	0.1590	1.8832	0.1604	1.4890	0.1274	1.4983	0.1284	1.5278	0.1357
270.1328	1.8963	0.1641	1.8463	0.1591	1.8725	0.1605	1.4854	0.1275	1.4720	0.1284	1.6083	0.1358
270.1656	1.9090	0.1642	1.8303	0.1592	1.8717	0.1606	1.4950	0.1275	1.5097	0.1285	1.5501	0.1358
270.1989	1.8919	0.1642	1.8373	0.1592	1.8647	0.1606	1.5104	0.1276	1.5055	0.1285	1.5837	0.1359
270.2321	1.9117	0.1643	1.8369	0.1593	1.8335	0.1607	1.4604	0.1276	1.4927	0.1286	1.6192	0.1359
270.2649	1.8935	0.1644	1.8220	0.1594	1.8816	0.1607	1.4875	0.1277	1.5224	0.1286	1.5766	0.1360
270.2981	1.9024	0.1644	1.8403	0.1594	1.8650	0.1608	1.4904	0.1277	1.4935	0.1287	1.5648	0.1360
270.3313	1.9089	0.1645	1.8256	0.1595	1.8630	0.1609	1.4695	0.1278	1.4589	0.1287	1.5823	0.1361
270.3642	1.8999	0.1646	1.8405	0.1595	1.9160	0.1609	1.5099	0.1278	1.4633	0.1288	1.6114	0.1361
270.3974	1.9135	0.1646	1.8589	0.1596	1.8981	0.1610	1.4874	0.1278	1.5123	0.1288	1.5759	0.1362
270.4306	1.9407	0.1647	1.8359	0.1596	1.8537	0.1610	1.4449	0.1279	1.4945	0.1289	1.6115	0.1363
270.4639	1.8956	0.1648	1.8433	0.1597	1.8349	0.1611	1.4706	0.1280	1.4952	0.1289	1.5876	0.1363
270.4971	1.8858	0.1648	1.8547	0.1598	1.8504	0.1612	1.4891	0.1280	1.5314	0.1290	1.5293	0.1363
270.5298	1.8859	0.1649	1.8523	0.1598	1.8546	0.1612	1.4885	0.1280	1.4687	0.1290	1.5627	0.1364
270.5631	1.9152	0.1649	1.8692	0.1599	1.8636	0.1613	1.5385	0.1281	1.4752	0.1291	1.5964	0.1364
270.5964	1.9161	0.1650	1.8651	0.1600	1.8448	0.1613	1.4603	0.1281	1.5095	0.1291	1.5660	0.1365
270.6291	1.9054	0.1651	1.8436	0.1600	1.8891	0.1614	1.4334	0.1282	1.4954	0.1292	1.5590	0.1365
270.6623	1.9001	0.1651	1.8463	0.1601	1.8534	0.1615	1.4809	0.1282	1.5085	0.1292	1.6001	0.1366
270.6956	1.9292	0.1652	1.8222	0.1601	1.8377	0.1615	1.4779	0.1283	1.5325	0.1293	1.5659	0.1367
270.7288	1.8870	0.1652	1.8409	0.1602	1.8820	0.1616	1.4758	0.1283	1.4571	0.1293	1.5419	0.1367
270.7615	1.8846	0.1653	1.8376	0.1603	1.8711	0.1617	1.5363	0.1284	1.4515	0.1294	1.5616	0.1368
270.7948	1.9032	0.1654	1.8400	0.1603	1.8698	0.1617	1.4608	0.1284	1.5100	0.1294	1.5667	0.1368
270.8280	1.8987	0.1654	1.8659	0.1604	1.8735	0.1618	1.4345	0.1285	1.4798	0.1295	1.5531	0.1369
270.8613	1.9232	0.1655	1.8364	0.1605	1.8929	0.1618	1.4763	0.1285	1.4836	0.1295	1.5790	0.1369
270.8940	1.9103	0.1656	1.8467	0.1605	1.8662	0.1619	1.4673	0.1286	1.5217	0.1295	1.5986	0.1369
270.9273	1.9321	0.1656	1.8357	0.1606	1.8519	0.1620	1.4812	0.1286	1.4652	0.1296	1.5318	0.1370
270.9605	1.9523	0.1657	1.8524	0.1606	1.8467	0.1620	1.5180	0.1287	1.4883	0.1296	1.5461	0.1371
270.9937	1.8795	0.1657	1.8463	0.1607	1.8473	0.1621	1.4425	0.1287	1.5116	0.1297	1.5916	0.1371
271.0265	1.9104	0.1658	1.8650	0.1607	1.8745	0.1621	1.4470	0.1288	1.4742	0.1298	1.5660	0.1372
271.0597	1.8965	0.1659	1.8729	0.1608	1.8573	0.1622	1.4948	0.1288	1.4916	0.1298	1.5912	0.1372
271.0930	1.9008	0.1659	1.8943	0.1609	1.8705	0.1623	1.4668	0.1289	1.5235	0.1298	1.5943	0.1373
271.1262	1.9238	0.1660	1.8396	0.1609	1.8558	0.1623	1.4964	0.1289	1.4634	0.1299	1.5961	0.1373
271.1589	1.9117	0.1661	1.8470	0.1610	1.8765	0.1624	1.5207	0.1290	1.4842	0.1299	1.5495	0.1374
271.1922	1.9136	0.1661	1.8530	0.1610	1.8352	0.1625	1.4237	0.1290	1.5030	0.1300	1.5725	0.1374
271.2254	1.9228	0.1662	1.8209	0.1611	1.8814	0.1625	1.4676	0.1291	1.4929	0.1300	1.5868	0.1375
271.2586	1.9183	0.1663	1.8395	0.1612	1.8772	0.1626	1.5155	0.1291	1.5180	0.1301	1.5783	0.1375
271.2914	1.9172	0.1663	1.8469	0.1613	1.8584	0.1626	1.4842	0.1292	1.5552	0.1301	1.5948	0.1376
271.3246	1.9178	0.1664	1.8540	0.1613	1.9058	0.1627	1.4837	0.1292	1.4958	0.1302	1.6251	0.1376
271.3578	1.9104	0.1664	1.8651	0.1614	1.8686	0.1628	1.5202	0.1293	1.4755	0.1302	1.5671	0.1377
271.3906	1.8888	0.1665	1.8395	0.1614	1.8552	0.1628	1.4401	0.1293	1.4857	0.1303	1.5337	0.1377
271.4239	1.9124	0.1666	1.8478	0.1615	1.8631	0.1629	1.4420	0.1294	1.5091	0.1303	1.5993	0.1378
271.4571	1.9350	0.1666	1.8543	0.1615	1.8577	0.1630	1.4976	0.1294	1.4976	0.1304	1.5657	0.1379
271.4903	1.9241	0.1667	1.8556	0.1616	1.8677	0.1630	1.4663	0.1295	1.5443	0.1304	1.5961	0.1379
271.5236	1.9055	0.1667	1.8698	0.1617	1.8588	0.1631	1.5002	0.1295	1.5129	0.1305	1.6050	0.1379
271.5563	1.8942	0.1668	1.8714	0.1617	1.8736	0.1631	1.5184	0.1295	1.4687	0.1305	1.5873	0.1380
271.5895	1.9053	0.1669	1.8901	0.1618	1.8905	0.1632	1.4554	0.1296	1.5006	0.1306	1.5497	0.1381
271.6228	1.9036	0.1669	1.8804	0.1619	1.8555	0.1633	1.4722	0.1296	1.5265	0.1306	1.5580	0.1381
271.6560	1.9000	0.1670	1.8319	0.1619	1.8804	0.1633	1.4901	0.1297	1.5055	0.1307	1.5915	0.1381
271.6887	1.8910	0.1671	1.8403	0.1620	1.8750	0.1634	1.4790	0.1298	1.5058	0.1307	1.5766	0.1382
271.7219	1.8842	0.1671	1.8266	0.1620	1.8693	0.1634	1.4991	0.1298	1.5218	0.1308	1.6040	0.1383
271.7552	1.9228	0.1672	1.8607	0.1621	1.9004	0.1635	1.5205	0.1298	1.4760	0.1308	1.6128	0.1383
271.7884	1.8879	0.1673	1.8219	0.1621	1.9006	0.1636	1.4243	0.1299	1.4831	0.1309	1.5508	0.1384
271.8212	1.9036	0.1673	1.8613	0.1622	1.9017	0.1636	1.4854	0.1299	1.5140	0.1309	1.5420	0.1384
271.8544	1.8765	0.1674	1.8678	0.1623	1.8524	0.1637	1.4890	0.1300	1.5014	0.1310	1.5990	0.1385
271.8876	1.9242	0.1674	1.8846	0.1623	1.8492	0.1638	1.4875	0.1300	1.5229	0.1310	1.5958	0.1385
271.9209	1.9331	0.1675	1.8447	0.1624	1.8447	0.1638	1.5139	0.1301	1.5289	0.1311	1.5756	0.1386
271.9536	1.9012	0.1676	1.8394	0.1625	1.8659	0.1639	1.5019	0.1301	1.4829	0.1311	1.6458	0.1386
271.9869	1.9340	0.1676	1.8481	0.1625	1.8412	0.1639	1.4677	0.1302	1.4760	0.1312	1.5955	0.1387
272.0201	1.9502	0.1677	1.8656	0.1626	1.8745	0.1640	1.4632	0.1302	1.5083	0.1312	1.5258	0.1387
272.0533	1.8965	0.1678	1.8627	0.1626	1.8636	0.1640	1.5005	0.1303	1.4742	0.1313	1.5643	0.1388
272.0861	1.9090	0.1678	1.9145	0.1627	1.8687	0.1641	1.4665	0.1303	1.5034	0.1313	1.5781	0.1388
272.1193	1.9014	0.1679	1.8320	0.1628	1.8772	0.1642	1.5105	0.1304	1.5251	0.1314	1.5764	0.1389
272.1525	1.9050	0.1679	1.8625	0.1628	1.8487	0.1642	1.4914	0.1304	1.4777	0.1314	1.5584	0.1389
272.1858	1.9173	0.1680	1.8558	0.1629	1.8745	0.1643	1.4675	0.1305	1.5053	0.1315	1.6387	0.1390
272.2190	1.8800	0.1681	1.8370	0.1630	1.8950	0.1644	1.5189	0.1305	1.5264	0.1315	1.5376	0.1390
272.2517	1.9058	0.1681	1.8673	0.1630	1.8650	0.1644	1.4953	0.1306	1.4891	0.1316	1.5539	0.1391
272.2850	1.9352	0.1682	1.8488	0.1631	1.8872	0.1645	1.4815	0.1306	1.5113	0.1316	1.6012	0.1391
272.3183	1.9108	0.1682	1.8728	0.1631	1.9275	0.1646	1.5058	0.1307	1.5690	0.1317	1.5491	0.1392
272.3510	1.8824	0.1683	1.8716	0.1632	1.8653	0.1646	1.5200	0.1307	1.4871	0.1317	1.5817	0.1392
272.3843	1.9344	0.1684	1.8302	0.1633	1.8297	0.1647	1.4661	0.1308	1.4739	0.1318	1.5960	0.1393
272.4175	1.9080	0.1684	1.8701	0.1633	1.8695	0.1647	1.4692	0.1308	1.5055	0.1318	1.5845	0.1393
272.4507	1.9366	0.1685	1.8511	0.1634	1.8858	0.1648	1.4880	0.1309	1.4878	0.1319	1.5289	0.1394
272.4835	1.9331	0.1686	1.8614	0.1634	1.8798	0.1648	1.4883	0.1309	1.5157	0.1319	1.5624	0.1394
272.5167	1.9273	0.1686	1.8356	0.1635	1.8689	0.1649	1.5037	0.1310	1.5216	0.1320	1.5667	0.1395
272.5500	1.9282	0.1687	1.8739	0.1636	1.9031	0.1650	1.4781	0.1310	1.4975	0.1320	1.5633	0.1396
272.5827	1.8890	0.1688	1.8901	0.1636	1.8399	0.1650	1.4657	0.1311	1.4641	0.1321	1.5762	0.1396
272.6160	1.9009	0.1688	1.8827	0.1637	1.8538	0.1651	1.4636	0.1311	1.4933	0.1321	1.5986	0.1396
272.6492	1.8853	0.1689	1.8726	0.1638	1.8773	0.1652	1.4938	0.1312	1.5027	0.1321	1.5448	0.1397
272.6824	1.8889	0.1689	1.8354	0.1638	1.8473	0.1652	1.4763	0.1312	1.4839	0.1322	1.5440	0.1398
272.7152	1.8892	0.1690	1.8297	0.1639	1.8996	0.1653	1.5352	0.1313	1.5300	0.1323	1.6057	0.1398
272.7484	1.9015	0.1691	1.8414	0.1639	1.8959	0.1653	1.4431	0.1313	1.5011	0.1323	1.5702	0.1399
272.7816	1.9012	0.1691	1.8561	0.1640	1.8872	0.1654	1.4476	0.1313	1.4821	0.1323	1.5820	0.1399
272.8148	1.9150	0.1692	1.8547	0.1640	1.8766	0.1655	1.4900	0.1314	1.4983	0.1324	1.5988	0.1400
272.8476	1.9046	0.1693	1.8748	0.1641	1.8659	0.1655	1.4839	0.1315	1.5136	0.1324	1.5667	0.1400
272.8808	1.9253	0.1693	1.8485	0.1642	1.8574	0.1656	1.5091	0.1315	1.4902	0.1325	1.5525	0.1401
272.9141	1.9029	0.1694	1.8415	0.1642	1.8493	0.1656	1.5369	0.1315	1.5302	0.1326	1.5384	0.1401
272.9469	1.9047	0.1694	1.8622	0.1643	1.8565	0.1657	1.4796	0.1316	1.5246	0.1326	1.5873	0.1402
272.9801	1.9009	0.1695	1.8553	0.1644	1.8607	0.1658	1.4245	0.1316	1.4803	0.1327	1.5794	0.1402
273.0133	1.8914	0.1696	1.8713	0.1644	1.8948	0.1658	1.4885	0.1317	1.4801	0.1327	1.5745	0.1403
273.0466	1.9363	0.1696	1.8608	0.1645	1.9003	0.1659	1.4805	0.1317	1.5118	0.1328	1.5978	0.1403
273.0798	1.9305	0.1697	1.8680	0.1645	1.8690	0.1660	1.4657	0.1318	1.5039	0.1328	1.5375	0.1404
273.1125	1.9226	0.1698	1.8611	0.1646	1.8582	0.1660	1.5067	0.1318	1.4943	0.1328	1.5484	0.1404
273.1458	1.9232	0.1698	1.8280	0.1646	1.8506	0.1661	1.4404	0.1319	1.5479	0.1329	1.5728	0.1405
273.1791	1.8904	0.1699	1.8213	0.1647	1.8687	0.1661	1.4644	0.1319	1.4939	0.1330	1.5877	0.1405
273.2118	1.8861	0.1699	1.8504	0.1648	1.8525	0.1662	1.4820	0.1320	1.4829	0.1330	1.5833	0.1406
273.2450	1.9003	0.1700	1.8319	0.1648	1.9171	0.1663	1.4852	0.1320	1.4987	0.1331	1.6008	0.1406
273.2783	1.8818	0.1701	1.8288	0.1649	1.9195	0.1663	1.4795	0.1321	1.4785	0.1331	1.5716	0.1407
273.3115	1.9217	0.1701	1.8460	0.1650	1.8634	0.1664	1.5159	0.1321	1.5111	0.1331	1.5464	0.1407
273.3442	1.9328	0.1702	1.8616	0.1650	1.8817	0.1664	1.4350	0.1322	1.5557	0.1332	1.5474	0.1408
273.3775	1.8938	0.1703	1.8512	0.1651	1.8573	0.1665	1.4460	0.1322	1.4605	0.1332	1.5806	0.1408
273.4107	1.9145	0.1703	1.8399	0.1651	1.8629	0.1666	1.5030	0.1323	1.4888	0.1333	1.5492	0.1409
273.4440	1.8933	0.1704	1.8391	0.1652	1.8793	0.1666	1.4846	0.1323	1.5113	0.1333	1.5629	0.1409
273.4767	1.9152	0.1704	1.8619	0.1653	1.8632	0.1667	1.4974	0.1324	1.5107	0.1334	1.6048	0.1410
273.5100	1.9077	0.1705	1.8596	0.1653	1.8980	0.1668	1.5167	0.1324	1.4981	0.1334	1.5370	0.1410
273.5432	1.9125	0.1706	1.8582	0.1654	1.8732	0.1668	1.4538	0.1325	1.5501	0.1335	1.5352	0.1411
273.5764	1.9372	0.1706	1.8636	0.1655	1.8652	0.1669	1.4595	0.1325	1.4698	0.1335	1.5905	0.1411
273.6092	1.9522	0.1707	1.8785	0.1655	1.8765	0.1669	1.4922	0.1326	1.4891	0.1336	1.5674	0.1412
273.6425	1.8943	0.1708	1.8418	0.1656	1.8551	0.1670	1.4883	0.1326	1.4948	0.1336	1.5781	0.1412
273.6757	1.9154	0.1708	1.8661	0.1656	1.8938	0.1671	1.5018	0.1327	1.5166	0.1337	1.6069	0.1413
273.7085	1.8691	0.1709	1.8384	0.1657	1.8868	0.1671	1.5071	0.1327	1.4984	0.1337	1.5898	0.1414
273.7417	1.8780	0.1709	1.8444	0.1657	1.9102	0.1672	1.4653	0.1328	1.5363	0.1338	1.5434	0.1414
273.7749	1.8817	0.1710	1.8151	0.1658	1.9074	0.1673	1.4760	0.1328	1.5217	0.1338	1.5588	0.1414
273.8082	1.8852	0.1711	1.8463	0.1659	1.8488	0.1673	1.4865	0.1329	1.4736	0.1339	1.5814	0.1415
273.8410	1.9041	0.1711	1.8495	0.1659	1.8571	0.1674	1.4752	0.1329	1.5043	0.1339	1.5597	0.1415
273.8742	1.9364	0.1712	1.8628	0.1660	1.8803	0.1674	1.4941	0.1330	1.4966	0.1340	1.5718	0.1416
273.9075	1.8709	0.1713	1.8449	0.1661	1.8345	0.1675	1.4881	0.1330	1.4982	0.1340	1.6083	0.1417
273.9407	1.9200	0.1713	1.8430	0.1661	1.8726	0.1676	1.4518	0.1331	1.4916	0.1341	1.5518	0.1417
273.9734	1.8808	0.1714	1.8397	0.1662	1.8911	0.1676	1.4765	0.1331	1.5172	0.1341	1.5337	0.1418
274.0067	1.8961	0.1714	1.8499	0.1662	1.8917	0.1677	1.5135	0.1331	1.4605	0.1342	1.6010	0.1418
274.0399	1.9049	0.1715	1.8457	0.1663	1.8785	0.1677	1.4785	0.1332	1.4852	0.1342	1.5434	0.1419
274.0731	1.9043	0.1716	1.8657	0.1663	1.8582	0.1678	1.5145	0.1332	1.4923	0.1343	1.5865	0.1419
274.1058	1.9176	0.1716	1.8785	0.1664	1.8600	0.1679	1.4760	0.1333	1.5025	0.1343	1.5880	0.1420
274.1391	1.9315	0.1717	1.8383	0.1665	1.9012	0.1679	1.4778	0.1333	1.5354	0.1344	1.5741	0.1420
274.1724	1.8839	0.1718	1.8506	0.1665	1.8506	0.1680	1.4737	0.1334	1.5105	0.1344	1.5354	0.1421
274.2056	1.9106	0.1718	1.8101	0.1666	1.8813	0.1681	1.4671	0.1334	1.4646	0.1345	1.5653	0.1421
274.2383	1.8655	0.1719	1.8500	0.1667	1.8968	0.1681	1.4603	0.1335	1.4736	0.1345	1.5893	0.1422
274.2716	1.8898	0.1719	1.8806	0.1667	1.8923	0.1682	1.5215	0.1335	1.5059	0.1346	1.5580	0.1422
274.3048	1.8843	0.1720	1.8220	0.1668	1.8573	0.1682	1.4538	0.1336	1.4654	0.1346	1.5960	0.1423
274.3376	1.8776	0.1721	1.8531	0.1668	1.8460	0.1683	1.4592	0.1336	1.5074	0.1347	1.6078	0.1423
274.3709	1.9157	0.1721	1.8758	0.1669	1.8687	0.1684	1.4768	0.1337	1.5189	0.1347	1.5597	0.1424
274.4042	1.9216	0.1722	1.8803	0.1669	1.8391	0.1684	1.4634	0.1337	1.4587	0.1348	1.5506	0.1424
274.4374	1.9068	0.1722	1.8107	0.1670	1.8574	0.1685	1.4725	0.1338	1.4546	0.1348	1.5764	0.1425
274.4702	1.8998	0.1723	1.8296	0.1671	1.8847	0.1685	1.5044	0.1338	1.5086	0.1349	1.5702	0.1425
274.5034	1.8894	0.1724	1.8902	0.1671	1.8549	0.1686	1.4633	0.1339	1.4976	0.1349	1.5752	0.1426
274.5366	1.9105	0.1724	1.8428	0.1672	1.8569	0.1687	1.4433	0.1339	1.5129	0.1350	1.6275	0.1427
274.5694	1.9331	0.1725	1.8100	0.1673	1.8650	0.1687	1.4911	0.1340	1.5184	0.1350	1.5724	0.1427
274.6026	1.9130	0.1726	1.8432	0.1673	1.8590	0.1688	1.4570	0.1340	1.4476	0.1351	1.5565	0.1427
274.6358	1.9305	0.1726	1.8554	0.1674	1.8629	0.1689	1.4760	0.1341	1.4693	0.1351	1.5761	0.1428
274.6691	1.9033	0.1727	1.8208	0.1674	1.8832	0.1689	1.5014	0.1341	1.5160	0.1352	1.5769	0.1429
274.7019	1.9000	0.1727	1.8137	0.1675	1.8663	0.1690	1.4422	0.1342	1.4796	0.1352	1.5747	0.1429
274.7351	1.8991	0.1728	1.8509	0.1676	1.9000	0.1690	1.4585	0.1342	1.4869	0.1353	1.6017	0.1429
274.7683	1.8914	0.1729	1.8403	0.1676	1.8594	0.1691	1.5089	0.1343	1.5251	0.1353	1.6034	0.1430
274.8015	1.8757	0.1729	1.7972	0.1677	1.8393	0.1692	1.5039	0.1343	1.4587	0.1353	1.5325	0.1431
274.8343	1.8708	0.1730	1.8297	0.1678	1.8613	0.1692	1.4920	0.1344	1.4744	0.1354	1.5289	0.1431
274.8675	1.8742	0.1731	1.8689	0.1678	1.8397	0.1693	1.5075	0.1344	1.5113	0.1354	1.5924	0.1432
274.9007	1.9163	0.1731	1.8167	0.1679	1.8563	0.1694	1.4355	0.1344	1.4807	0.1355	1.5533	0.1432
274.9339	1.8923	0.1732	1.7980	0.1679	1.8492	0.1694	1.4554	0.1345	1.4815	0.1355	1.5786	0.1433
274.9667	1.8956	0.1732	1.8966	0.1680	1.8770	0.1694	1.4927	0.1346	1.5102	0.1356	1.6036	0.1433
274.9999	1.8962	0.1733	1.8613	0.1681	1.8349	0.1695	1.4571	0.1346	1.4409	0.1356	1.5652	0.1434
275.0332	1.8754	0.1734	1.8306	0.1681	1.8489	0.1696	1.4826	0.1346	1.4407	0.1357	1.5212	0.1434
275.0660	1.9120	0.1734	1.8544	0.1682	1.8624	0.1696	1.4690	0.1347	1.4842	0.1357	1.5675	0.1435
275.0992	1.8754	0.1735	1.8631	0.1682	1.8312	0.1697	1.4431	0.1348	1.4638	0.1358	1.5464	0.1435
275.1325	1.9054	0.1736	1.8290	0.1683	1.8508	0.1698	1.4587	0.1348	1.4916	0.1358	1.5769	0.1436
275.1657	1.9145	0.1736	1.7663	0.1683	1.8774	0.1698	1.4919	0.1348	1.5470	0.1359	1.5935	0.1436
275.1984	1.8809	0.1737	1.8634	0.1684	1.8742	0.1699	1.4601	0.1349	1.4355	0.1359	1.5860	0.1437
275.2317	1.8569	0.1737	1.8418	0.1685	1.8319	0.1700	1.5245	0.1349	1.4473	0.1360	1.5417	0.1437
275.2650	1.9059	0.1738	1.8082	0.1685	1.8508	0.1700	1.4312	0.1350	1.5126	0.1360	1.5512	0.1438
275.2982	1.8720	0.1739	1.8332	0.1686	1.8428	0.1701	1.4590	0.1350	1.4974	0.1361	1.5806	0.1438
275.3310	1.8791	0.1739	1.8791	0.1686	1.8492	0.1701	1.4790	0.1351	1.4949	0.1361	1.5384	0.1439
275.3642	1.9072	0.1740	1.8419	0.1687	1.8659	0.1702	1.4692	0.1351	1.5226	0.1362	1.5629	0.1439
275.3975	1.9024	0.1741	1.7845	0.1688	1.8784	0.1703	1.4723	0.1352	1.4368	0.1362	1.6072	0.1440
275.4307	1.9059	0.1741	1.8551	0.1688	1.8895	0.1703	1.5031	0.1352	1.4758	0.1363	1.5320	0.1440
275.4634	1.9104	0.1742	1.8754	0.1689	1.8603	0.1704	1.4592	0.1353	1.4998	0.1363	1.5593	0.1441
275.4967	1.8778	0.1742	1.8300	0.1689	1.8766	0.1704	1.4587	0.1353	1.4728	0.1364	1.5648	0.1441
275.5299	1.8929	0.1743	1.8129	0.1690	1.8509	0.1705	1.4913	0.1354	1.4949	0.1364	1.5456	0.1442
275.5631	1.8975	0.1744	1.8749	0.1691	1.8717	0.1706	1.4823	0.1354	1.5307	0.1365	1.5398	0.1442
275.5959	1.9163	0.1744	1.8624	0.1691	1.8802	0.1706	1.4900	0.1355	1.4468	0.1365	1.6282	0.1443
275.6291	1.9273	0.1745	1.7748	0.1692	1.8877	0.1707	1.5082	0.1355	1.4687	0.1366	1.5489	0.1443
275.6623	1.9161	0.1746	1.8283	0.1693	1.8831	0.1708	1.4361	0.1356	1.5157	0.1366	1.5542	0.1444
275.6955	1.9024	0.1746	1.8555	0.1693	1.8681	0.1708	1.4614	0.1356	1.4733	0.1367	1.5541	0.1444
275.7287	1.8845	0.1747	1.8098	0.1694	1.8525	0.1709	1.4694	0.1357	1.4815	0.1367	1.5891	0.1445
275.7615	1.9052	0.1747	1.8079	0.1694	1.8646	0.1709	1.4760	0.1357	1.5351	0.1368	1.5635	0.1446
275.7947	1.8975	0.1748	1.8654	0.1695	1.8779	0.1710	1.4958	0.1358	1.4682	0.1368	1.5639	0.1446
275.8279	1.8772	0.1749	1.8785	0.1696	1.8428	0.1711	1.4930	0.1358	1.4408	0.1369	1.6051	0.1447
275.8612	1.9028	0.1749	1.8128	0.1696	1.8880	0.1711	1.4534	0.1359	1.5295	0.1369	1.5222	0.1447
275.8939	1.9245	0.1750	1.8467	0.1697	1.8747	0.1712	1.4817	0.1359	1.4866	0.1369	1.5561	0.1447
275.9272	1.9278	0.1751	1.9087	0.1698	1.8681	0.1713	1.4971	0.1360	1.5034	0.1370	1.6016	0.1448
275.9605	1.9189	0.1751	1.8562	0.1698	1.8839	0.1713	1.4908	0.1360	1.5326	0.1371	1.5578	0.1449
275.9937	1.9271	0.1752	1.8209	0.1699	1.8716	0.1714	1.5132	0.1361	1.4684	0.1371	1.5741	0.1449
276.0265	1.9087	0.1752	1.8526	0.1699	1.8947	0.1714	1.4778	0.1361	1.4804	0.1371	1.6122	0.1450
276.0597	1.9176	0.1753	1.8895	0.1700	1.8924	0.1715	1.4657	0.1361	1.5206	0.1372	1.5685	0.1450
276.0929	1.9105	0.1754	1.8303	0.1701	1.8939	0.1716	1.4820	0.1362	1.4758	0.1373	1.5445	0.1451
276.1262	1.9223	0.1754	1.8453	0.1701	1.9064	0.1716	1.4776	0.1363	1.4836	0.1373	1.5949	0.1451
276.1589	1.9339	0.1755	1.8493	0.1702	1.8642	0.1717	1.4815	0.1363	1.5235	0.1373	1.5930	0.1452
276.1921	1.9618	0.1756	1.8879	0.1702	1.8710	0.1717	1.5248	0.1363	1.4684	0.1374	1.5724	0.1452
276.2254	1.9142	0.1756	1.8733	0.1703	1.8765	0.1718	1.4597	0.1364	1.4663	0.1374	1.5967	0.1453
276.2582	1.9022	0.1757	1.8177	0.1704	1.8525	0.1719	1.4636	0.1364	1.4837	0.1375	1.6031	0.1453
276.2915	1.9049	0.1757	1.8473	0.1704	1.8619	0.1719	1.4673	0.1365	1.4869	0.1375	1.5759	0.1454
276.3247	1.9172	0.1758	1.8553	0.1705	1.8945	0.1720	1.4476	0.1365	1.4976	0.1376	1.5379	0.1454
276.3579	1.9099	0.1759	1.8549	0.1706	1.8648	0.1721	1.4883	0.1366	1.5489	0.1376	1.6204	0.1455
276.3907	1.9271	0.1759	1.8614	0.1706	1.9336	0.1721	1.4979	0.1366	1.4774	0.1377	1.5701	0.1455
276.4240	1.9039	0.1760	1.8421	0.1707	1.8665	0.1722	1.4497	0.1367	1.4866	0.1377	1.5812	0.1456
276.4572	1.9438	0.1761	1.8671	0.1707	1.8829	0.1722	1.4390	0.1367	1.5003	0.1378	1.6167	0.1456
276.4900	1.9123	0.1761	1.9033	0.1708	1.8714	0.1723	1.5093	0.1368	1.5014	0.1378	1.5621	0.1457
276.5232	1.9205	0.1762	1.8459	0.1708	1.8659	0.1724	1.4568	0.1368	1.4908	0.1379	1.5567	0.1457
276.5565	1.9087	0.1762	1.8470	0.1709	1.9022	0.1724	1.4959	0.1369	1.5206	0.1379	1.5567	0.1458
276.5897	1.9167	0.1763	1.8484	0.1710	1.8888	0.1725	1.5144	0.1369	1.5164	0.1380	1.6021	0.1458
276.6224	1.9161	0.1764	1.8310	0.1710	1.8853	0.1725	1.4409	0.1370	1.4885	0.1380	1.5720	0.1459
276.6557	1.9307	0.1764	1.8462	0.1711	1.9012	0.1726	1.4532	0.1370	1.5010	0.1381	1.6038	0.1459
276.6889	1.9163	0.1765	1.8293	0.1711	1.8889	0.1727	1.4826	0.1371	1.4979	0.1381	1.6077	0.1460
276.7221	1.9532	0.1766	1.8549	0.1712	1.8571	0.1727	1.4790	0.1371	1.4883	0.1382	1.5653	0.1461
276.7553	1.9134	0.1766	1.8656	0.1713	1.8769	0.1728	1.4863	0.1372	1.4976	0.1382	1.5766	0.1461
276.7881	1.8957	0.1767	1.8440	0.1713	1.8785	0.1729	1.5223	0.1372	1.5032	0.1383	1.5769	0.1462
276.8213	1.9100	0.1768	1.8633	0.1714	1.8902	0.1729	1.4611	0.1373	1.4692	0.1383	1.5705	0.1462
276.8545	1.9318	0.1768	1.8525	0.1714	1.8697	0.1730	1.4676	0.1373	1.4902	0.1384	1.5903	0.1462
276.8877	1.8928	0.1769	1.8414	0.1715	1.9092	0.1730	1.5130	0.1374	1.5353	0.1384	1.6416	0.1463
276.9205	1.8892	0.1769	1.8711	0.1716	1.8877	0.1731	1.4733	0.1374	1.4916	0.1385	1.5704	0.1464
276.9538	1.9128	0.1770	1.8705	0.1716	1.8603	0.1732	1.4972	0.1375	1.5028	0.1385	1.5609	0.1464
276.9870	1.9169	0.1771	1.8910	0.1717	1.8869	0.1732	1.5287	0.1375	1.5137	0.1386	1.5845	0.1465
277.0203	1.9331	0.1771	1.8778	0.1718	1.8817	0.1733	1.4552	0.1376	1.4766	0.1386	1.6108	0.1465
277.0530	1.9250	0.1772	1.8399	0.1718	1.8809	0.1733	1.4727	0.1376	1.4771	0.1386	1.5769	0.1466
277.0863	1.9234	0.1773	1.8558	0.1719	1.8877	0.1734	1.5179	0.1377	1.5025	0.1387	1.5897	0.1466
277.1195	1.9269	0.1773	1.8614	0.1719	1.9198	0.1735	1.4915	0.1377	1.5055	0.1388	1.6331	0.1467
277.1523	1.9037	0.1774	1.8534	0.1720	1.9268	0.1735	1.5174	0.1378	1.5039	0.1388	1.5629	0.1467
277.1855	1.9201	0.1774	1.8729	0.1721	1.8815	0.1736	1.5209	0.1378	1.5451	0.1389	1.5817	0.1468
277.2187	1.9250	0.1775	1.8873	0.1721	1.8747	0.1736	1.4640	0.1379	1.4747	0.1389	1.5952	0.1468
277.2519	1.9110	0.1776	1.8502	0.1722	1.8803	0.1737	1.4709	0.1379	1.4638	0.1389	1.5854	0.1469
277.2852	1.9469	0.1776	1.8652	0.1722	1.8659	0.1738	1.5146	0.1379	1.5231	0.1390	1.6152	0.1469
277.3179	1.9079	0.1777	1.8659	0.1723	1.8720	0.1739	1.4945	0.1380	1.5003	0.1390	1.6066	0.1470
277.3511	1.9235	0.1778	1.8629	0.1724	1.8965	0.1739	1.5201	0.1381	1.5171	0.1391	1.6128	0.1470
277.3843	1.9146	0.1778	1.8837	0.1724	1.8956	0.1740	1.5408	0.1381	1.5295	0.1392	1.5709	0.1471
277.4176	1.9020	0.1779	1.8821	0.1725	1.8708	0.1740	1.4698	0.1381	1.4798	0.1392	1.5877	0.1472
277.4508	1.9024	0.1779	1.8882	0.1726	1.8680	0.1741	1.4997	0.1382	1.4760	0.1392	1.6145	0.1472
277.4835	1.9104	0.1780	1.8780	0.1726	1.8597	0.1741	1.5177	0.1382	1.5006	0.1393	1.5965	0.1472
277.5167	1.8943	0.1781	1.8943	0.1727	1.9043	0.1742	1.5020	0.1383	1.5470	0.1394	1.6494	0.1473
277.5500	1.9240	0.1781	1.8769	0.1727	1.8892	0.1743	1.5137	0.1383	1.5030	0.1394	1.5601	0.1473
277.5832	1.9116	0.1782	1.8449	0.1728	1.8793	0.1743	1.5390	0.1384	1.5373	0.1394	1.5936	0.1474
277.6159	1.9294	0.1783	1.8467	0.1729	1.9082	0.1744	1.4910	0.1384	1.5266	0.1395	1.5529	0.1475
277.6491	1.9171	0.1783	1.8812	0.1729	1.9047	0.1744	1.4720	0.1385	1.4768	0.1396	1.5442	0.1475
277.6824	1.9201	0.1784	1.8436	0.1730	1.9183	0.1745	1.5218	0.1385	1.4829	0.1396	1.6234	0.1476
277.7156	1.9344	0.1785	1.8754	0.1731	1.8889	0.1746	1.4776	0.1386	1.5317	0.1396	1.5900	0.1476
277.7484	1.9217	0.1785	1.8786	0.1731	1.8781	0.1746	1.5062	0.1386	1.5120	0.1397	1.6038	0.1477
277.7816	1.9489	0.1786	1.8843	0.1732	1.9113	0.1747	1.5243	0.1387	1.4982	0.1398	1.6086	0.1477
277.8148	1.9423	0.1787	1.8769	0.1732	1.8800	0.1748	1.4714	0.1387	1.5486	0.1398	1.5753	0.1478
277.8481	1.9412	0.1787	1.8624	0.1733	1.8784	0.1748	1.4891	0.1388	1.4972	0.1398	1.6078	0.1478
277.8808	1.9372	0.1788	1.8687	0.1734	1.8851	0.1749	1.5308	0.1388	1.5031	0.1399	1.5554	0.1479
277.9140	1.9325	0.1788	1.8791	0.1734	1.8972	0.1750	1.4750	0.1389	1.5055	0.1399	1.6151	0.1479
277.9473	1.9206	0.1789	1.8773	0.1735	1.9059	0.1750	1.5120	0.1389	1.5020	0.1400	1.6137	0.1480
277.9805	1.8938	0.1790	1.8855	0.1735	1.8855	0.1751	1.5294	0.1390	1.5071	0.1400	1.5972	0.1480
278.0132	1.9319	0.1790	1.8842	0.1736	1.8726	0.1751	1.4771	0.1390	1.5786	0.1401	1.6288	0.1481
278.0465	1.9047	0.1791	1.8972	0.1737	1.8952	0.1752	1.4649	0.1391	1.4926	0.1401	1.5473	0.1481
278.0797	1.9204	0.1792	1.8868	0.1737	1.8938	0.1753	1.4927	0.1391	1.4990	0.1402	1.6089	0.1482
278.1130	1.9366	0.1792	1.8777	0.1738	1.8919	0.1753	1.4890	0.1392	1.5181	0.1402	1.6012	0.1482
278.1457	1.9201	0.1793	1.8576	0.1739	1.9151	0.1754	1.4869	0.1392	1.5202	0.1403	1.5865	0.1483
278.1790	1.9226	0.1793	1.8546	0.1739	1.9237	0.1754	1.5243	0.1393	1.5177	0.1403	1.5984	0.1483
278.2122	1.9377	0.1794	1.8738	0.1740	1.8898	0.1755	1.4733	0.1393	1.5381	0.1404	1.5598	0.1484
278.2454	1.9440	0.1795	1.8744	0.1740	1.9031	0.1756	1.4856	0.1394	1.5076	0.1404	1.6234	0.1484
278.2781	1.9037	0.1795	1.8511	0.1741	1.8670	0.1756	1.5283	0.1394	1.4750	0.1405	1.5703	0.1485
278.3114	1.9055	0.1796	1.8668	0.1742	1.8687	0.1757	1.4601	0.1395	1.5203	0.1405	1.5790	0.1485
278.3446	1.9148	0.1797	1.8908	0.1742	1.8825	0.1758	1.5145	0.1395	1.5180	0.1406	1.6134	0.1486
278.3778	1.9290	0.1797	1.8606	0.1743	1.8616	0.1758	1.5307	0.1396	1.5053	0.1406	1.5807	0.1487
278.4106	1.9523	0.1798	1.8627	0.1743	1.9055	0.1759	1.4809	0.1396	1.5287	0.1407	1.6348	0.1487
278.4438	1.9216	0.1798	1.8580	0.1744	1.8882	0.1759	1.4978	0.1397	1.5153	0.1407	1.5930	0.1487
278.4771	1.9343	0.1799	1.8718	0.1744	1.8589	0.1760	1.5168	0.1397	1.4796	0.1408	1.5789	0.1488
278.5103	1.9039	0.1800	1.8793	0.1745	1.8956	0.1761	1.4900	0.1398	1.4930	0.1408	1.6112	0.1489
278.5430	1.9043	0.1800	1.8629	0.1746	1.8610	0.1761	1.4859	0.1398	1.5204	0.1409	1.5723	0.1489
278.5763	1.9049	0.1801	1.9088	0.1746	1.9076	0.1762	1.5268	0.1399	1.5170	0.1409	1.6237	0.1490
278.6095	1.9105	0.1802	1.8904	0.1747	1.8735	0.1762	1.4493	0.1399	1.5135	0.1410	1.6170	0.1490
278.6428	1.9107	0.1802	1.8628	0.1748	1.8786	0.1763	1.4660	0.1400	1.5579	0.1410	1.6008	0.1491
278.6755	1.9252	0.1803	1.8391	0.1748	1.9120	0.1764	1.5028	0.1400	1.4657	0.1411	1.5960	0.1491
278.7087	1.9593	0.1804	1.8745	0.1749	1.8704	0.1764	1.5045	0.1401	1.4900	0.1411	1.5582	0.1492
278.7420	1.9136	0.1804	1.8652	0.1750	1.8503	0.1765	1.5053	0.1401	1.5310	0.1412	1.6070	0.1492
278.7752	1.9105	0.1805	1.8502	0.1750	1.8843	0.1766	1.5533	0.1402	1.4883	0.1412	1.5916	0.1493
278.8079	1.9065	0.1805	1.8341	0.1751	1.8467	0.1766	1.4598	0.1402	1.5207	0.1413	1.6001	0.1493
278.8412	1.9213	0.1806	1.8647	0.1751	1.8531	0.1767	1.4398	0.1403	1.5259	0.1413	1.6202	0.1494
278.8744	1.9192	0.1807	1.8818	0.1752	1.8926	0.1768	1.4795	0.1403	1.4911	0.1414	1.5646	0.1494
278.9076	1.9271	0.1807	1.8604	0.1752	1.8862	0.1768	1.4690	0.1404	1.4766	0.1414	1.6239	0.1495
278.9404	1.9429	0.1808	1.8595	0.1753	1.8947	0.1769	1.4974	0.1404	1.5184	0.1415	1.5371	0.1495
278.9737	1.9634	0.1809	1.8345	0.1754	1.8372	0.1769	1.5190	0.1404	1.4994	0.1415	1.5718	0.1496
279.0069	1.9002	0.1809	1.8280	0.1754	1.8705	0.1770	1.4482	0.1405	1.4833	0.1416	1.5775	0.1497
279.0396	1.9131	0.1810	1.8653	0.1755	1.8831	0.1771	1.4617	0.1406	1.5179	0.1416	1.5811	0.1497
279.0729	1.8991	0.1810	1.8861	0.1756	1.8540	0.1771	1.4900	0.1406	1.4899	0.1417	1.6327	0.1498
279.1061	1.8886	0.1811	1.8960	0.1756	1.9028	0.1772	1.4950	0.1406	1.4885	0.1417	1.5197	0.1498
279.1389	1.9034	0.1812	1.8687	0.1757	1.8928	0.1772	1.4863	0.1407	1.4902	0.1418	1.5632	0.1499
279.1722	1.9024	0.1812	1.8482	0.1757	1.8966	0.1773	1.5200	0.1407	1.5152	0.1418	1.5896	0.1499
279.2054	1.9178	0.1813	1.8277	0.1758	1.8828	0.1774	1.4428	0.1408	1.4984	0.1419	1.5642	0.1500
279.2386	1.9454	0.1814	1.8310	0.1759	1.8682	0.1774	1.4900	0.1408	1.5386	0.1419	1.5845	0.1500
279.2713	1.8965	0.1814	1.8333	0.1759	1.8468	0.1775	1.4926	0.1409	1.5311	0.1420	1.5905	0.1501
279.3046	1.8863	0.1815	1.8654	0.1760	1.8624	0.1775	1.4821	0.1409	1.4801	0.1420	1.6082	0.1501
279.3379	1.9108	0.1815	1.8617	0.1761	1.8729	0.1776	1.5299	0.1410	1.4927	0.1421	1.5434	0.1502
279.3711	1.8831	0.1816	1.8738	0.1761	1.8580	0.1777	1.4839	0.1410	1.5212	0.1421	1.5781	0.1502
279.4038	1.9343	0.1817	1.8543	0.1762	1.8694	0.1777	1.4681	0.1411	1.4703	0.1422	1.5978	0.1503
279.4371	1.9212	0.1817	1.8219	0.1762	1.8696	0.1778	1.4686	0.1411	1.5126	0.1422	1.5943	0.1503
279.4703	1.9293	0.1818	1.8421	0.1763	1.8665	0.1779	1.4865	0.1412	1.5403	0.1423	1.5913	0.1504
279.5035	1.9307	0.1819	1.8302	0.1764	1.8671	0.1779	1.4782	0.1412	1.4744	0.1423	1.6398	0.1504
279.5363	1.8817	0.1819	1.8546	0.1764	1.8523	0.1780	1.5028	0.1413	1.4724	0.1424	1.5450	0.1505
279.5695	1.9112	0.1820	1.8776	0.1765	1.8748	0.1780	1.4618	0.1413	1.5056	0.1424	1.5304	0.1505
279.6027	1.8962	0.1820	1.8742	0.1765	1.8456	0.1781	1.4476	0.1414	1.5151	0.1425	1.5950	0.1506
279.6360	1.8968	0.1821	1.8275	0.1766	1.8720	0.1782	1.4610	0.1414	1.4992	0.1425	1.5712	0.1506
279.6687	1.8926	0.1822	1.8430	0.1767	1.8883	0.1782	1.4689	0.1415	1.5529	0.1426	1.5756	0.1507
279.7020	1.9114	0.1822	1.8082	0.1767	1.8503	0.1783	1.4785	0.1415	1.4798	0.1426	1.5916	0.1507
279.7352	1.8941	0.1823	1.8370	0.1768	1.8705	0.1783	1.5162	0.1416	1.4771	0.1427	1.6021	0.1508
279.7684	1.9655	0.1824	1.8387	0.1768	1.8678	0.1784	1.4813	0.1416	1.5145	0.1427	1.5521	0.1509
279.8012	1.9018	0.1824	1.8465	0.1769	1.8662	0.1785	1.4581	0.1417	1.4883	0.1427	1.5350	0.1509
279.8344	1.9067	0.1825	1.8502	0.1769	1.8543	0.1785	1.4863	0.1417	1.5174	0.1428	1.5624	0.1510
279.8677	1.9048	0.1825	1.8669	0.1770	1.8603	0.1786	1.4733	0.1418	1.5262	0.1429	1.5775	0.1510
279.9004	1.8957	0.1826	1.8422	0.1771	1.9054	0.1787	1.4905	0.1418	1.4662	0.1429	1.5646	0.1510
279.9336	1.9327	0.1827	1.8428	0.1771	1.8509	0.1787	1.5556	0.1419	1.4720	0.1429	1.6267	0.1511
279.9668	1.9105	0.1827	1.8457	0.1772	1.8471	0.1788	1.4913	0.1419	1.5077	0.1430	1.5933	0.1512
280.0000	1.9350	0.1828	1.8490	0.1773	1.8861	0.1788	1.4476	0.1420	1.4917	0.1431	1.5448	0.1512
280.0333	1.9553	0.1829	1.8528	0.1773	1.8565	0.1789	1.5015	0.1420	1.4916	0.1431	1.5498	0.1513
280.0660	1.9027	0.1829	1.8560	0.1774	1.8968	0.1790	1.4695	0.1421	1.5457	0.1431	1.5871	0.1513
280.0992	1.8780	0.1830	1.8910	0.1774	1.8823	0.1790	1.5131	0.1421	1.4926	0.1432	1.5395	0.1514
280.1324	1.8894	0.1830	1.8374	0.1775	1.9007	0.1791	1.5381	0.1421	1.4695	0.1432	1.6060	0.1514
280.1652	1.8966	0.1831	1.8342	0.1776	1.8800	0.1791	1.4516	0.1422	1.5181	0.1433	1.5870	0.1515
280.1984	1.9145	0.1832	1.8439	0.1776	1.8430	0.1792	1.4565	0.1422	1.5102	0.1433	1.5417	0.1515
280.2317	1.9076	0.1832	1.8360	0.1777	1.8622	0.1793	1.4866	0.1423	1.5075	0.1434	1.5943	0.1516
280.2649	1.9078	0.1833	1.8760	0.1777	1.8255	0.1793	1.4908	0.1424	1.5099	0.1434	1.6062	0.1516
280.2977	1.9123	0.1834	1.8408	0.1778	1.8355	0.1794	1.4894	0.1424	1.5197	0.1435	1.5749	0.1517
280.3309	1.9040	0.1834	1.8328	0.1779	1.8592	0.1794	1.5015	0.1424	1.4771	0.1435	1.5515	0.1517
280.3642	1.9283	0.1835	1.8822	0.1779	1.8781	0.1795	1.4503	0.1425	1.4638	0.1436	1.6318	0.1518
280.3969	1.9312	0.1835	1.8516	0.1780	1.8616	0.1796	1.4663	0.1425	1.5171	0.1436	1.5439	0.1518
280.4301	1.9167	0.1836	1.8437	0.1781	1.8601	0.1796	1.5028	0.1426	1.5011	0.1437	1.5437	0.1519
280.4634	1.9105	0.1837	1.8215	0.1781	1.8546	0.1797	1.4655	0.1426	1.5074	0.1437	1.5653	0.1519
280.4966	1.9342	0.1837	1.8574	0.1782	1.8870	0.1797	1.5117	0.1427	1.5177	0.1438	1.5724	0.1520
280.5294	1.9101	0.1838	1.8583	0.1782	1.8751	0.1798	1.4966	0.1427	1.4807	0.1438	1.5691	0.1520
280.5627	1.9391	0.1839	1.8373	0.1783	1.8630	0.1799	1.4581	0.1428	1.4939	0.1439	1.5850	0.1521
280.5959	1.9040	0.1839	1.8534	0.1784	1.9070	0.1799	1.4701	0.1428	1.5108	0.1439	1.6397	0.1522
280.6291	1.9016	0.1840	1.8791	0.1784	1.9167	0.1800	1.5147	0.1429	1.5147	0.1440	1.5461	0.1522
280.6619	1.9070	0.1841	1.8391	0.1785	1.8674	0.1801	1.4836	0.1429	1.5174	0.1440	1.5612	0.1522
280.6951	1.9024	0.1841	1.8181	0.1785	1.8502	0.1801	1.4809	0.1430	1.5311	0.1441	1.5845	0.1523
280.7283	1.9308	0.1842	1.8372	0.1786	1.8502	0.1802	1.5212	0.1430	1.4790	0.1441	1.5749	0.1523
280.7611	1.9185	0.1842	1.8138	0.1787	1.8543	0.1802	1.4403	0.1431	1.4785	0.1442	1.5834	0.1524
280.7943	1.9048	0.1843	1.8391	0.1787	1.8506	0.1803	1.4778	0.1431	1.5143	0.1442	1.6215	0.1525
280.8275	1.9217	0.1844	1.8460	0.1788	1.8534	0.1804	1.4874	0.1432	1.4837	0.1443	1.5556	0.1525
280.8608	1.8910	0.1844	1.8579	0.1789	1.9110	0.1804	1.4887	0.1432	1.5036	0.1443	1.5561	0.1526
280.8935	1.9087	0.1845	1.8726	0.1789	1.8849	0.1805	1.5129	0.1433	1.5705	0.1444	1.5779	0.1526
280.9268	1.9016	0.1845	1.8495	0.1790	1.8782	0.1805	1.5172	0.1433	1.4690	0.1444	1.5674	0.1527
280.9600	1.8883	0.1846	1.8557	0.1790	1.8627	0.1806	1.4696	0.1434	1.4654	0.1445	1.5646	0.1527
280.9932	1.9268	0.1847	1.8485	0.1791	1.8861	0.1807	1.4875	0.1434	1.5273	0.1445	1.5897	0.1527
281.0260	1.9048	0.1847	1.8339	0.1792	1.9095	0.1807	1.5022	0.1435	1.5170	0.1446	1.5981	0.1528
281.0592	1.9417	0.1848	1.8460	0.1792	1.8696	0.1808	1.4725	0.1435	1.4992	0.1446	1.5493	0.1529
281.0924	1.9372	0.1849	1.8713	0.1793	1.9193	0.1809	1.5035	0.1436	1.5440	0.1447	1.5749	0.1529
281.1257	1.8861	0.1849	1.8284	0.1793	1.8748	0.1809	1.4971	0.1436	1.4634	0.1447	1.5964	0.1530
281.1584	1.8939	0.1850	1.8256	0.1794	1.8567	0.1810	1.4651	0.1437	1.4714	0.1448	1.5531	0.1530
281.1916	1.8921	0.1851	1.8091	0.1794	1.8440	0.1810	1.4908	0.1437	1.4978	0.1448	1.5857	0.1531
281.2249	1.8732	0.1851	1.8366	0.1795	1.8733	0.1811	1.4909	0.1438	1.4971	0.1449	1.6009	0.1531
281.2576	1.8880	0.1852	1.8516	0.1796	1.8531	0.1812	1.4978	0.1438	1.5166	0.1449	1.5643	0.1532
281.2909	1.9109	0.1852	1.8631	0.1797	1.8590	0.1812	1.5184	0.1439	1.5536	0.1450	1.5662	0.1532
281.3241	1.9154	0.1853	1.8627	0.1797	1.8840	0.1813	1.5151	0.1439	1.4945	0.1450	1.5762	0.1533
281.3574	1.9164	0.1854	1.8454	0.1798	1.8708	0.1814	1.4417	0.1440	1.4660	0.1451	1.6157	0.1533
281.3901	1.8815	0.1854	1.8373	0.1798	1.8388	0.1814	1.4980	0.1440	1.5089	0.1451	1.5764	0.1534
281.4234	1.8991	0.1855	1.8819	0.1799	1.8680	0.1815	1.4813	0.1441	1.5038	0.1452	1.6111	0.1534
281.4566	1.9241	0.1856	1.8555	0.1799	1.8883	0.1815	1.4752	0.1441	1.4976	0.1452	1.5949	0.1535
281.4898	1.9009	0.1856	1.8588	0.1800	1.8868	0.1816	1.5172	0.1442	1.5342	0.1452	1.5441	0.1535
281.5226	1.9190	0.1857	1.8595	0.1801	1.8590	0.1817	1.5110	0.1442	1.4943	0.1453	1.5562	0.1536
281.5559	1.9117	0.1857	1.8539	0.1801	1.9043	0.1817	1.4681	0.1443	1.4582	0.1454	1.5805	0.1536
281.5891	1.9266	0.1858	1.8592	0.1802	1.9132	0.1818	1.4659	0.1443	1.5013	0.1454	1.5724	0.1537
281.6218	1.9565	0.1859	1.8270	0.1802	1.8708	0.1818	1.4904	0.1444	1.5135	0.1454	1.5839	0.1537
281.6551	1.9056	0.1859	1.8415	0.1803	1.8614	0.1819	1.4796	0.1444	1.5088	0.1455	1.6383	0.1538
281.6884	1.8980	0.1860	1.8497	0.1804	1.8726	0.1820	1.5295	0.1444	1.5061	0.1456	1.5463	0.1538
281.7216	1.8977	0.1860	1.8467	0.1804	1.8653	0.1820	1.4917	0.1445	1.5311	0.1456	1.5526	0.1539
281.7544	1.8664	0.1861	1.8646	0.1805	1.8673	0.1821	1.4676	0.1446	1.4892	0.1456	1.5687	0.1540
281.7876	1.9144	0.1862	1.8470	0.1805	1.8844	0.1822	1.4762	0.1446	1.5011	0.1457	1.5848	0.1540
281.8209	1.9081	0.1862	1.8617	0.1806	1.8956	0.1822	1.4968	0.1447	1.5128	0.1457	1.5656	0.1541
281.8536	1.9033	0.1863	1.8490	0.1807	1.8527	0.1823	1.4965	0.1447	1.5055	0.1458	1.5637	0.1541
281.8868	1.9123	0.1864	1.8539	0.1807	1.8433	0.1823	1.5085	0.1447	1.5197	0.1458	1.6090	0.1542
281.9201	1.8975	0.1865	1.8451	0.1808	1.8726	0.1824	1.5094	0.1448	1.5388	0.1459	1.5364	0.1542
281.9534	1.9100	0.1865	1.8585	0.1809	1.8571	0.1825	1.4735	0.1448	1.4763	0.1459	1.5677	0.1543
281.9861	1.9131	0.1866	1.8855	0.1809	1.8964	0.1825	1.5015	0.1449	1.4834	0.1460	1.5999	0.1543
282.0194	1.9018	0.1866	1.8591	0.1810	1.8947	0.1826	1.4921	0.1449	1.5202	0.1460	1.5806	0.1544
282.0527	1.9320	0.1867	1.8562	0.1810	1.8700	0.1826	1.4864	0.1450	1.5063	0.1461	1.5888	0.1544
282.0854	1.9412	0.1868	1.8571	0.1811	1.9167	0.1827	1.5220	0.1450	1.5462	0.1462	1.6140	0.1545
282.1186	1.9394	0.1868	1.8611	0.1812	1.8586	0.1827	1.4842	0.1451	1.5482	0.1462	1.5849	0.1545
282.1519	1.9391	0.1869	1.8396	0.1812	1.8602	0.1828	1.4863	0.1451	1.4856	0.1462	1.5444	0.1546
282.1851	1.8960	0.1869	1.8387	0.1813	1.8634	0.1829	1.4878	0.1452	1.4784	0.1463	1.5442	0.1546
282.2179	1.9273	0.1870	1.8643	0.1814	1.8711	0.1830	1.4995	0.1452	1.5214	0.1464	1.5876	0.1547
282.2511	1.8977	0.1871	1.8516	0.1814	1.8603	0.1830	1.4910	0.1453	1.4968	0.1464	1.5667	0.1547
282.2844	1.8800	0.1871	1.8482	0.1815	1.8620	0.1831	1.5275	0.1453	1.5108	0.1464	1.5950	0.1548
282.3176	1.8994	0.1872	1.8778	0.1815	1.9011	0.1831	1.4618	0.1454	1.5573	0.1465	1.6171	0.1548
282.3503	1.9056	0.1872	1.8629	0.1816	1.8935	0.1832	1.4722	0.1454	1.5163	0.1465	1.5820	0.1549
282.3836	1.9342	0.1873	1.8580	0.1816	1.8712	0.1833	1.4995	0.1455	1.4742	0.1466	1.5456	0.1549
282.4169	1.9300	0.1874	1.8500	0.1817	1.8762	0.1833	1.4995	0.1455	1.4898	0.1466	1.5809	0.1550
282.4496	1.8965	0.1874	1.8339	0.1818	1.8968	0.1834	1.4902	0.1456	1.4734	0.1467	1.5733	0.1550
282.4828	1.9103	0.1875	1.8613	0.1818	1.8594	0.1834	1.5365	0.1456	1.4849	0.1467	1.5806	0.1551
282.5160	1.9103	0.1876	1.8713	0.1819	1.9142	0.1835	1.4793	0.1457	1.5149	0.1468	1.6029	0.1551
282.5493	1.8919	0.1876	1.8800	0.1820	1.9064	0.1836	1.4458	0.1457	1.5028	0.1468	1.5944	0.1552
282.5820	1.9136	0.1877	1.8771	0.1820	1.8889	0.1836	1.4923	0.1458	1.4398	0.1469	1.5567	0.1552
282.6152	1.9199	0.1878	1.8705	0.1821	1.8546	0.1837	1.4862	0.1458	1.5091	0.1469	1.5586	0.1553
282.6485	1.9380	0.1878	1.8687	0.1821	1.8574	0.1837	1.4845	0.1459	1.5221	0.1470	1.6202	0.1553
282.6817	1.9575	0.1879	1.8616	0.1822	1.8883	0.1838	1.4854	0.1459	1.5078	0.1470	1.5833	0.1554
282.7144	1.9225	0.1880	1.8692	0.1823	1.8953	0.1839	1.4805	0.1460	1.5122	0.1471	1.6046	0.1555
282.7477	1.9315	0.1880	1.8302	0.1823	1.8819	0.1840	1.4674	0.1460	1.5449	0.1471	1.6080	0.1555
282.7809	1.9245	0.1881	1.8534	0.1824	1.8947	0.1840	1.4741	0.1461	1.4927	0.1472	1.5739	0.1555
282.8142	1.9054	0.1881	1.8601	0.1824	1.8644	0.1841	1.5039	0.1461	1.4992	0.1472	1.5696	0.1556
282.8469	1.9182	0.1882	1.8742	0.1825	1.8745	0.1841	1.4924	0.1462	1.5077	0.1473	1.5832	0.1557
282.8801	1.9405	0.1883	1.8624	0.1826	1.8963	0.1842	1.4706	0.1462	1.5072	0.1473	1.6038	0.1557
282.9133	1.9208	0.1883	1.8661	0.1826	1.8822	0.1842	1.4653	0.1462	1.5370	0.1474	1.5890	0.1558
282.9466	1.9446	0.1884	1.8731	0.1827	1.9027	0.1843	1.5282	0.1463	1.5479	0.1474	1.6310	0.1558
282.9793	1.9341	0.1885	1.8493	0.1827	1.9027	0.1844	1.4674	0.1464	1.5092	0.1475	1.6185	0.1559
283.0125	1.9117	0.1885	1.8773	0.1828	1.8959	0.1844	1.5034	0.1464	1.5119	0.1475	1.5559	0.1559
283.0457	1.9059	0.1886	1.8409	0.1829	1.8603	0.1845	1.5203	0.1464	1.5239	0.1476	1.5795	0.1560
283.0790	1.9293	0.1886	1.8898	0.1829	1.9232	0.1845	1.4809	0.1465	1.5082	0.1476	1.5814	0.1560
283.1117	1.9192	0.1887	1.8805	0.1830	1.8999	0.1846	1.4690	0.1465	1.5152	0.1477	1.5666	0.1561
283.1450	1.9011	0.1888	1.8814	0.1830	1.8849	0.1847	1.5110	0.1466	1.5859	0.1477	1.5931	0.1561
283.1782	1.9239	0.1888	1.8530	0.1831	1.8217	0.1847	1.4627	0.1466	1.5289	0.1478	1.6300	0.1562
283.2114	1.9477	0.1889	1.8485	0.1832	1.8874	0.1848	1.5088	0.1467	1.4875	0.1478	1.5910	0.1562
283.2442	1.9378	0.1890	1.8348	0.1832	1.8661	0.1849	1.5308	0.1467	1.5371	0.1479	1.5455	0.1563
283.2774	1.9241	0.1890	1.8485	0.1833	1.8563	0.1849	1.4774	0.1468	1.5303	0.1479	1.5817	0.1563
283.3106	1.9452	0.1891	1.8422	0.1834	1.8467	0.1850	1.4981	0.1468	1.4990	0.1480	1.5964	0.1564
283.3433	1.9081	0.1891	1.8636	0.1834	1.8676	0.1851	1.5087	0.1469	1.5306	0.1480	1.5741	0.1565
283.3766	1.9239	0.1892	1.9035	0.1835	1.9154	0.1851	1.4741	0.1469	1.5727	0.1481	1.5935	0.1565
283.4098	1.9226	0.1893	1.8692	0.1835	1.8318	0.1852	1.4758	0.1470	1.4826	0.1481	1.6396	0.1566
283.4430	1.9059	0.1893	1.8987	0.1836	1.8654	0.1852	1.5349	0.1470	1.5015	0.1482	1.5624	0.1566
283.4758	1.9372	0.1894	1.8391	0.1837	1.8923	0.1853	1.4658	0.1471	1.5082	0.1482	1.5691	0.1567
283.5090	1.9536	0.1895	1.8733	0.1837	1.9013	0.1854	1.5157	0.1471	1.5075	0.1483	1.5838	0.1567
283.5423	1.9385	0.1895	1.8566	0.1838	1.8614	0.1854	1.4896	0.1472	1.5097	0.1483	1.5976	0.1568
283.5755	1.9167	0.1896	1.8732	0.1839	1.8806	0.1855	1.4863	0.1472	1.5322	0.1484	1.5697	0.1568
283.6083	1.9092	0.1897	1.8776	0.1839	1.9367	0.1855	1.4861	0.1473	1.4669	0.1484	1.5752	0.1569
283.6415	1.9351	0.1897	1.9067	0.1840	1.8983	0.1856	1.5203	0.1473	1.4817	0.1485	1.6443	0.1569
283.6747	1.9099	0.1898	1.8840	0.1840	1.8194	0.1857	1.4733	0.1474	1.5187	0.1485	1.5350	0.1570
283.7080	1.9189	0.1898	1.8441	0.1841	1.8607	0.1857	1.4926	0.1474	1.5152	0.1486	1.5781	0.1570
283.7407	1.9477	0.1899	1.8580	0.1842	1.9099	0.1858	1.4840	0.1475	1.5232	0.1486	1.5933	0.1571
283.7739	1.9012	0.1900	1.8463	0.1842	1.8927	0.1859	1.4601	0.1475	1.5464	0.1487	1.5651	0.1571
283.8072	1.9680	0.1900	1.8423	0.1843	1.8575	0.1859	1.4990	0.1476	1.5104	0.1487	1.5904	0.1572
283.8400	1.9203	0.1901	1.8464	0.1843	1.8824	0.1860	1.5185	0.1476	1.4747	0.1488	1.6089	0.1572
283.8732	1.9114	0.1902	1.8467	0.1844	1.9254	0.1860	1.4726	0.1477	1.4966	0.1488	1.5873	0.1573
283.9064	1.9138	0.1902	1.8779	0.1845	1.8733	0.1861	1.4857	0.1477	1.5016	0.1489	1.5331	0.1573
283.9397	1.9199	0.1903	1.8441	0.1845	1.8359	0.1862	1.5107	0.1478	1.5232	0.1489	1.5722	0.1574
283.9724	1.9189	0.1903	1.8716	0.1846	1.9242	0.1862	1.4735	0.1478	1.5364	0.1490	1.6021	0.1574
284.0057	1.9237	0.1904	1.8444	0.1847	1.9320	0.1863	1.5089	0.1479	1.5323	0.1490	1.5819	0.1575
284.0390	1.9235	0.1905	1.8647	0.1847	1.9016	0.1863	1.5453	0.1479	1.4826	0.1491	1.6145	0.1575
284.0722	1.9369	0.1905	1.8809	0.1848	1.8543	0.1864	1.4908	0.1480	1.5145	0.1491	1.6225	0.1576
284.1050	1.9553	0.1906	1.8903	0.1848	1.9220	0.1865	1.5005	0.1480	1.5258	0.1492	1.5607	0.1577
284.1382	1.8980	0.1907	1.8900	0.1849	1.9356	0.1865	1.5037	0.1481	1.5072	0.1492	1.5540	0.1577
284.1714	1.9101	0.1907	1.9263	0.1850	1.8640	0.1866	1.4528	0.1481	1.5141	0.1493	1.5986	0.1578
284.2047	1.9418	0.1908	1.8607	0.1850	1.8219	0.1867	1.5086	0.1482	1.5758	0.1493	1.5524	0.1578
284.2374	1.9315	0.1908	1.8849	0.1851	1.9292	0.1867	1.5241	0.1482	1.4820	0.1494	1.5719	0.1578
284.2706	1.9506	0.1909	1.8417	0.1851	1.9195	0.1868	1.4791	0.1483	1.4885	0.1494	1.5877	0.1579
284.3039	1.9703	0.1910	1.8729	0.1852	1.8802	0.1869	1.4945	0.1483	1.5281	0.1494	1.5782	0.1580
284.3371	1.9527	0.1910	1.8553	0.1852	1.8637	0.1869	1.5059	0.1484	1.4847	0.1495	1.5491	0.1580
284.3698	1.9620	0.1911	1.8616	0.1853	1.9164	0.1870	1.4706	0.1484	1.5121	0.1495	1.5830	0.1581
284.4031	1.9303	0.1912	1.8689	0.1854	1.9517	0.1870	1.4963	0.1485	1.5624	0.1496	1.6274	0.1581
284.4363	1.9235	0.1912	1.8751	0.1855	1.8588	0.1871	1.5327	0.1485	1.4979	0.1497	1.5690	0.1582
284.4691	1.9228	0.1913	1.8499	0.1855	1.8552	0.1872	1.4773	0.1485	1.5080	0.1497	1.5891	0.1582
284.5023	1.8988	0.1914	1.8708	0.1856	1.9390	0.1872	1.5033	0.1486	1.5174	0.1497	1.6344	0.1583
284.5356	1.9309	0.1914	1.8560	0.1856	1.9165	0.1873	1.4877	0.1487	1.5381	0.1498	1.5697	0.1583
284.5688	1.9372	0.1915	1.8455	0.1857	1.8994	0.1873	1.4587	0.1487	1.5086	0.1499	1.5501	0.1584
284.6016	1.9190	0.1915	1.8697	0.1857	1.8956	0.1874	1.5278	0.1487	1.5182	0.1499	1.5931	0.1584
284.6349	1.9477	0.1916	1.8699	0.1858	1.9189	0.1875	1.4951	0.1488	1.5182	0.1500	1.5967	0.1585
284.6682	1.9632	0.1917	1.8910	0.1859	1.9347	0.1875	1.4650	0.1489	1.4836	0.1500	1.5598	0.1585
284.7009	1.9603	0.1917	1.8957	0.1859	1.8541	0.1876	1.4638	0.1489	1.4913	0.1501	1.6175	0.1586
284.7341	1.9294	0.1918	1.8814	0.1860	1.8636	0.1877	1.5020	0.1489	1.5201	0.1501	1.6023	0.1586
284.7674	1.9301	0.1919	1.8718	0.1860	1.9301	0.1877	1.4566	0.1490	1.5063	0.1502	1.5643	0.1587
284.8006	1.9406	0.1919	1.8560	0.1861	1.9381	0.1878	1.4896	0.1490	1.5378	0.1502	1.5839	0.1587
284.8333	1.9484	0.1920	1.8645	0.1862	1.8695	0.1878	1.5578	0.1491	1.5557	0.1502	1.6019	0.1588
284.8666	1.9558	0.1920	1.8768	0.1862	1.8945	0.1879	1.4850	0.1491	1.4708	0.1503	1.5875	0.1588
284.8999	1.9495	0.1921	1.8377	0.1863	1.8960	0.1880	1.4950	0.1492	1.4774	0.1504	1.5727	0.1589
284.9326	1.9534	0.1922	1.8562	0.1864	1.9366	0.1880	1.4987	0.1492	1.5356	0.1504	1.6497	0.1590
284.9659	1.9668	0.1923	1.8891	0.1864	1.8597	0.1881	1.4828	0.1493	1.5174	0.1505	1.5570	0.1590
284.9991	1.9340	0.1923	1.8548	0.1865	1.8573	0.1882	1.5152	0.1493	1.5127	0.1505	1.5754	0.1591
285.0323	1.9198	0.1924	1.8903	0.1865	1.9130	0.1882	1.5378	0.1494	1.5858	0.1505	1.5773	0.1591
285.0651	1.9212	0.1924	1.8613	0.1866	1.9399	0.1883	1.4842	0.1494	1.4831	0.1506	1.6108	0.1592
285.0983	1.9368	0.1925	1.8780	0.1867	1.8829	0.1883	1.5251	0.1495	1.5135	0.1506	1.5982	0.1592
285.1315	1.9170	0.1926	1.8823	0.1867	1.8604	0.1884	1.4920	0.1495	1.5333	0.1507	1.6034	0.1593
285.1647	1.9456	0.1926	1.8729	0.1868	1.9179	0.1885	1.4795	0.1496	1.5509	0.1507	1.6735	0.1593
285.1975	1.9495	0.1927	1.8911	0.1869	1.9326	0.1885	1.5115	0.1496	1.5218	0.1508	1.5565	0.1594
285.2308	1.9362	0.1928	1.8720	0.1869	1.8688	0.1886	1.5179	0.1497	1.5441	0.1508	1.5719	0.1594
285.2640	1.9632	0.1928	1.8634	0.1870	1.8444	0.1887	1.4869	0.1497	1.5361	0.1509	1.5794	0.1595
285.2973	1.9184	0.1929	1.8754	0.1870	1.9263	0.1887	1.5051	0.1498	1.4842	0.1510	1.5684	0.1595
285.3300	1.9114	0.1930	1.8352	0.1871	1.9079	0.1888	1.4784	0.1498	1.5138	0.1510	1.5809	0.1596
285.3632	1.9065	0.1930	1.8590	0.1872	1.8513	0.1888	1.4541	0.1499	1.5223	0.1510	1.5895	0.1596
285.3964	1.9188	0.1931	1.8615	0.1872	1.8665	0.1889	1.5105	0.1499	1.5007	0.1511	1.6041	0.1597
285.4296	1.9328	0.1931	1.8515	0.1873	1.8988	0.1890	1.5151	0.1500	1.4950	0.1512	1.5525	0.1597
285.4624	1.9269	0.1932	1.8696	0.1873	1.9056	0.1890	1.4581	0.1500	1.5495	0.1512	1.5823	0.1598
285.4957	1.9391	0.1933	1.8735	0.1874	1.8578	0.1891	1.4943	0.1501	1.5017	0.1512	1.6124	0.1598
285.5289	1.9383	0.1933	1.8539	0.1875	1.8754	0.1892	1.4792	0.1501	1.5012	0.1513	1.5843	0.1599
285.5617	1.9431	0.1934	1.8866	0.1875	1.9305	0.1892	1.4735	0.1502	1.5248	0.1514	1.5964	0.1599
285.5949	1.9206	0.1935	1.8373	0.1876	1.9110	0.1893	1.5001	0.1502	1.5168	0.1514	1.6119	0.1600
285.6281	1.9294	0.1935	1.8701	0.1877	1.8788	0.1893	1.5400	0.1503	1.5249	0.1515	1.6348	0.1600
285.6614	1.9236	0.1936	1.8561	0.1877	1.8877	0.1894	1.4818	0.1503	1.5493	0.1515	1.5407	0.1601
285.6946	1.9375	0.1936	1.8742	0.1878	1.9151	0.1895	1.4625	0.1504	1.5121	0.1515	1.5852	0.1602
285.7273	1.9175	0.1937	1.8805	0.1878	1.8969	0.1895	1.4801	0.1504	1.4850	0.1516	1.6279	0.1602
285.7606	1.9197	0.1938	1.8717	0.1879	1.8455	0.1896	1.4743	0.1505	1.5199	0.1516	1.6014	0.1603
285.7938	1.9095	0.1938	1.8715	0.1880	1.8714	0.1897	1.4728	0.1505	1.5489	0.1517	1.5961	0.1603
285.8265	1.9515	0.1939	1.8575	0.1880	1.9127	0.1897	1.5331	0.1506	1.5292	0.1517	1.6392	0.1603
285.8598	1.9475	0.1940	1.8685	0.1881	1.9101	0.1898	1.4897	0.1506	1.5229	0.1518	1.5833	0.1604
285.8931	1.9160	0.1940	1.8569	0.1881	1.8634	0.1898	1.4817	0.1507	1.5417	0.1518	1.5807	0.1605
285.9263	1.9413	0.1941	1.8463	0.1882	1.8782	0.1899	1.5040	0.1507	1.4818	0.1519	1.5890	0.1605
285.9591	1.9468	0.1942	1.8705	0.1883	1.9429	0.1900	1.4514	0.1508	1.5094	0.1519	1.6108	0.1606
285.9923	1.9284	0.1942	1.8587	0.1883	1.8771	0.1900	1.4834	0.1508	1.5005	0.1520	1.5899	0.1606
286.0256	1.9335	0.1943	1.8665	0.1884	1.8741	0.1901	1.5078	0.1509	1.5107	0.1520	1.6173	0.1607
286.0583	1.9398	0.1943	1.8508	0.1885	1.9113	0.1901	1.4619	0.1509	1.5086	0.1521	1.6279	0.1607
286.0916	1.9488	0.1944	1.8615	0.1885	1.9269	0.1902	1.4396	0.1510	1.5651	0.1522	1.5929	0.1608
286.1248	1.9457	0.1945	1.8467	0.1886	1.9063	0.1903	1.4987	0.1510	1.4768	0.1522	1.5588	0.1608
286.1581	1.9484	0.1945	1.8771	0.1887	1.8731	0.1903	1.4810	0.1510	1.4883	0.1522	1.6051	0.1609
286.1908	1.9182	0.1946	1.8814	0.1887	1.8632	0.1904	1.5168	0.1511	1.5069	0.1523	1.6120	0.1609
286.2241	1.9090	0.1947	1.8729	0.1888	1.9141	0.1905	1.5189	0.1512	1.4890	0.1523	1.5840	0.1610
286.2573	1.9370	0.1947	1.8805	0.1888	1.8627	0.1905	1.5373	0.1512	1.4969	0.1524	1.5871	0.1610
286.2905	1.8997	0.1948	1.8868	0.1889	1.8421	0.1906	1.4801	0.1512	1.5455	0.1524	1.6107	0.1611
286.3232	1.9326	0.1948	1.8710	0.1890	1.8730	0.1906	1.4865	0.1513	1.5101	0.1525	1.5635	0.1611
286.3565	1.9226	0.1949	1.8804	0.1890	1.8958	0.1907	1.5127	0.1514	1.4995	0.1525	1.5632	0.1612
286.3898	1.9039	0.1950	1.8516	0.1891	1.8802	0.1908	1.4763	0.1514	1.5170	0.1526	1.6357	0.1613
286.4225	1.9272	0.1950	1.8433	0.1891	1.8838	0.1908	1.5145	0.1515	1.5512	0.1526	1.5924	0.1613
286.4557	1.9291	0.1951	1.8673	0.1892	1.8871	0.1909	1.4935	0.1515	1.5174	0.1527	1.6026	0.1613
286.4890	1.9275	0.1952	1.8244	0.1893	1.9199	0.1910	1.4722	0.1515	1.5157	0.1527	1.6128	0.1614
286.5222	1.9489	0.1952	1.8527	0.1893	1.8467	0.1910	1.4882	0.1516	1.5421	0.1528	1.6023	0.1615
286.5554	1.9318	0.1953	1.8826	0.1894	1.8742	0.1911	1.4986	0.1516	1.4823	0.1528	1.5696	0.1615
286.5881	1.9319	0.1953	1.8369	0.1894	1.9188	0.1911	1.4946	0.1517	1.5036	0.1529	1.5709	0.1616
286.6214	1.9663	0.1954	1.9046	0.1895	1.9041	0.1912	1.5366	0.1517	1.5254	0.1529	1.6163	0.1616
286.6546	1.9579	0.1955	1.8664	0.1896	1.8856	0.1913	1.5096	0.1518	1.5069	0.1530	1.5916	0.1617
286.6873	1.9533	0.1956	1.8643	0.1896	1.8800	0.1913	1.4762	0.1518	1.5384	0.1530	1.6018	0.1617
286.7206	1.9562	0.1956	1.8665	0.1897	1.9050	0.1914	1.5022	0.1519	1.5660	0.1531	1.6364	0.1618
286.7538	1.9120	0.1957	1.8742	0.1898	1.9047	0.1915	1.4909	0.1519	1.4981	0.1531	1.5843	0.1618
286.7871	1.9469	0.1957	1.8821	0.1898	1.8331	0.1915	1.4869	0.1520	1.4921	0.1532	1.5935	0.1619
286.8198	1.9237	0.1958	1.8968	0.1899	1.8610	0.1916	1.5402	0.1520	1.5424	0.1532	1.5773	0.1619
286.8530	1.9402	0.1959	1.8814	0.1899	1.9235	0.1916	1.5258	0.1521	1.5128	0.1533	1.6363	0.1620
286.8863	1.9179	0.1959	1.8450	0.1900	1.8784	0.1917	1.4714	0.1522	1.5398	0.1533	1.5718	0.1620
286.9195	1.9214	0.1960	1.8428	0.1901	1.8681	0.1918	1.4865	0.1522	1.5337	0.1534	1.5783	0.1621
286.9523	1.9214	0.1961	1.8387	0.1901	1.8806	0.1918	1.5071	0.1522	1.5319	0.1534	1.6268	0.1621
286.9855	1.9651	0.1961	1.8682	0.1902	1.8977	0.1919	1.4779	0.1523	1.4823	0.1535	1.5504	0.1622
287.0187	1.9160	0.1962	1.8742	0.1902	1.8653	0.1919	1.5216	0.1523	1.5085	0.1535	1.5575	0.1622
287.0520	1.9347	0.1963	1.8803	0.1903	1.8314	0.1920	1.5268	0.1524	1.5420	0.1536	1.6141	0.1623
287.0847	1.9212	0.1963	1.8710	0.1904	1.9160	0.1921	1.4798	0.1524	1.5072	0.1536	1.6184	0.1623
287.1179	1.9260	0.1964	1.8530	0.1904	1.9428	0.1921	1.4776	0.1525	1.5380	0.1537	1.5811	0.1624
287.1512	1.9226	0.1965	1.8727	0.1905	1.8687	0.1922	1.4963	0.1525	1.5259	0.1537	1.6428	0.1624
287.1844	1.9260	0.1965	1.8342	0.1905	1.8922	0.1923	1.4829	0.1526	1.4684	0.1538	1.6197	0.1625
287.2172	1.9636	0.1966	1.8476	0.1906	1.9229	0.1923	1.4970	0.1526	1.4934	0.1538	1.5508	0.1626
287.2504	1.9279	0.1966	1.8674	0.1907	1.9309	0.1924	1.5334	0.1527	1.5326	0.1539	1.5892	0.1626
287.2837	1.9356	0.1967	1.8683	0.1907	1.8590	0.1924	1.4569	0.1527	1.5147	0.1539	1.6087	0.1627
287.3170	1.9325	0.1968	1.8648	0.1908	1.8350	0.1925	1.4908	0.1528	1.5295	0.1540	1.6029	0.1627
287.3497	1.9216	0.1968	1.8877	0.1908	1.8797	0.1926	1.5069	0.1528	1.5649	0.1540	1.5783	0.1628
287.3829	1.9097	0.1969	1.8904	0.1909	1.8972	0.1926	1.4866	0.1529	1.5184	0.1541	1.6271	0.1628
287.4162	1.9127	0.1969	1.8745	0.1910	1.8649	0.1927	1.5181	0.1529	1.4930	0.1541	1.5685	0.1629
287.4490	1.8844	0.1970	1.8409	0.1910	1.8592	0.1928	1.5209	0.1530	1.4989	0.1542	1.5509	0.1629
287.4822	1.9448	0.1971	1.8514	0.1911	1.9172	0.1928	1.4681	0.1530	1.5261	0.1542	1.5669	0.1630
287.5154	1.9117	0.1971	1.8316	0.1911	1.8806	0.1929	1.5003	0.1531	1.5210	0.1543	1.5989	0.1630
287.5487	1.9141	0.1972	1.8625	0.1912	1.8414	0.1930	1.5256	0.1531	1.5350	0.1543	1.5884	0.1631
287.5814	1.9238	0.1973	1.8394	0.1913	1.8980	0.1930	1.4771	0.1532	1.5519	0.1544	1.6091	0.1631
287.6146	1.9086	0.1973	1.8705	0.1913	1.9309	0.1930	1.5172	0.1532	1.5012	0.1544	1.6678	0.1632
287.6479	1.9361	0.1974	1.8656	0.1914	1.8810	0.1931	1.4931	0.1533	1.5009	0.1545	1.5429	0.1632
287.6811	1.9309	0.1974	1.8499	0.1915	1.8737	0.1932	1.4567	0.1533	1.5225	0.1545	1.5722	0.1633
287.7143	1.9350	0.1975	1.8590	0.1915	1.8731	0.1933	1.4741	0.1534	1.4918	0.1546	1.6256	0.1633
287.7471	1.9400	0.1976	1.8580	0.1916	1.9085	0.1933	1.5058	0.1534	1.5295	0.1546	1.6137	0.1634
287.7804	1.9467	0.1976	1.8607	0.1916	1.8513	0.1934	1.4929	0.1535	1.5504	0.1547	1.5713	0.1635
287.8136	1.9269	0.1977	1.8868	0.1917	1.8517	0.1934	1.5172	0.1535	1.4757	0.1547	1.6074	0.1635
287.8463	1.9684	0.1978	1.8971	0.1918	1.9125	0.1935	1.5233	0.1535	1.5110	0.1548	1.6219	0.1636
287.8796	1.8980	0.1978	1.8769	0.1918	1.9246	0.1935	1.4671	0.1536	1.5298	0.1548	1.5485	0.1636
287.9128	1.9090	0.1979	1.8827	0.1919	1.8630	0.1936	1.4882	0.1537	1.4949	0.1549	1.5950	0.1636
287.9460	1.8990	0.1979	1.8744	0.1920	1.8698	0.1937	1.5041	0.1537	1.5053	0.1549	1.5874	0.1637
287.9787	1.9122	0.1980	1.8405	0.1920	1.8920	0.1937	1.4763	0.1537	1.5626	0.1550	1.5977	0.1638
288.0120	1.9335	0.1981	1.8634	0.1921	1.8872	0.1938	1.5137	0.1538	1.5019	0.1550	1.6063	0.1638
288.0452	1.9090	0.1981	1.8885	0.1921	1.8656	0.1939	1.5156	0.1538	1.4891	0.1551	1.6532	0.1639
288.0784	1.8943	0.1982	1.8516	0.1922	1.8632	0.1939	1.4770	0.1539	1.5187	0.1551	1.6060	0.1639
288.1112	1.9292	0.1983	1.8817	0.1923	1.9436	0.1940	1.4892	0.1540	1.5220	0.1552	1.5622	0.1640
288.1445	1.9197	0.1983	1.8843	0.1923	1.9014	0.1941	1.5115	0.1540	1.5185	0.1552	1.5864	0.1640
288.1777	1.8972	0.1984	1.8441	0.1924	1.8590	0.1941	1.4894	0.1540	1.5394	0.1553	1.5903	0.1641
288.2109	1.9173	0.1985	1.9019	0.1924	1.8926	0.1942	1.5181	0.1541	1.5291	0.1553	1.5871	0.1641
288.2437	1.9173	0.1985	1.8475	0.1925	1.9139	0.1942	1.5100	0.1541	1.4854	0.1554	1.5890	0.1642
288.2769	1.9132	0.1986	1.8595	0.1926	1.8938	0.1943	1.4721	0.1542	1.4900	0.1554	1.6171	0.1642
288.3102	1.9412	0.1986	1.8418	0.1926	1.8414	0.1944	1.4950	0.1542	1.5016	0.1555	1.5756	0.1643
288.3434	1.9007	0.1987	1.8470	0.1927	1.8631	0.1944	1.5118	0.1543	1.5212	0.1555	1.5501	0.1643
288.3761	1.9524	0.1988	1.8949	0.1928	1.9105	0.1945	1.4858	0.1543	1.5036	0.1556	1.5764	0.1644
288.4094	1.9210	0.1988	1.8866	0.1928	1.8833	0.1946	1.4962	0.1544	1.5554	0.1556	1.5905	0.1644
288.4427	1.9232	0.1989	1.8477	0.1929	1.8680	0.1946	1.5156	0.1545	1.4872	0.1557	1.5789	0.1645
288.4755	1.9134	0.1990	1.8815	0.1929	1.9000	0.1947	1.4577	0.1545	1.4845	0.1557	1.6091	0.1646
288.5087	1.8983	0.1990	1.8343	0.1930	1.9150	0.1948	1.4774	0.1545	1.5413	0.1558	1.6194	0.1646
288.5419	1.8929	0.1991	1.8278	0.1930	1.9166	0.1948	1.4822	0.1546	1.5266	0.1558	1.5567	0.1646
288.5752	1.9238	0.1992	1.8579	0.1931	1.8951	0.1949	1.5008	0.1546	1.5168	0.1559	1.5487	0.1647
288.6080	1.9173	0.1992	1.8428	0.1932	1.9270	0.1949	1.5164	0.1547	1.5598	0.1559	1.6277	0.1648
288.6412	1.9193	0.1993	1.8668	0.1932	1.9218	0.1950	1.5108	0.1547	1.4937	0.1560	1.5699	0.1648
288.6745	1.9365	0.1993	1.8673	0.1933	1.9061	0.1951	1.4679	0.1548	1.4812	0.1560	1.5877	0.1649
288.7072	1.8804	0.1994	1.8391	0.1934	1.8742	0.1951	1.4801	0.1548	1.5375	0.1560	1.6331	0.1649
288.7404	1.9330	0.1995	1.8756	0.1934	1.9252	0.1952	1.5196	0.1549	1.4987	0.1561	1.5992	0.1650
288.7737	1.9119	0.1995	1.8520	0.1935	1.8592	0.1952	1.4671	0.1549	1.5188	0.1562	1.5543	0.1650
288.8069	1.9205	0.1996	1.8744	0.1935	1.9005	0.1953	1.4964	0.1550	1.5384	0.1562	1.5730	0.1651
288.8396	1.9525	0.1996	1.8561	0.1936	1.8650	0.1953	1.5091	0.1550	1.5068	0.1562	1.6265	0.1651
288.8728	1.9432	0.1997	1.8823	0.1936	1.8697	0.1954	1.4589	0.1551	1.4964	0.1563	1.5504	0.1652
288.9061	1.9399	0.1998	1.8714	0.1937	1.8953	0.1955	1.4776	0.1551	1.4937	0.1563	1.6029	0.1652
288.9393	1.9348	0.1998	1.8629	0.1938	1.9059	0.1956	1.4997	0.1552	1.5261	0.1564	1.6197	0.1653
288.9720	1.9422	0.1999	1.8588	0.1938	1.8938	0.1956	1.4834	0.1552	1.5058	0.1565	1.5545	0.1653
289.0053	1.9145	0.2000	1.8601	0.1939	1.8684	0.1957	1.5254	0.1553	1.5300	0.1565	1.5486	0.1654
289.0386	1.8956	0.2000	1.8318	0.1940	1.8965	0.1957	1.5220	0.1553	1.5519	0.1566	1.6124	0.1654
289.0718	1.9203	0.2001	1.8622	0.1940	1.8929	0.1958	1.4511	0.1554	1.4690	0.1566	1.6140	0.1655
289.1046	1.9040	0.2002	1.8658	0.1941	1.8640	0.1959	1.4933	0.1554	1.4797	0.1567	1.5618	0.1655
289.1378	1.8994	0.2002	1.8629	0.1942	1.8871	0.1959	1.5058	0.1555	1.5254	0.1567	1.6064	0.1656
289.1711	1.9133	0.2003	1.8434	0.1942	1.9252	0.1960	1.5039	0.1555	1.5287	0.1568	1.6057	0.1656
289.2043	1.9310	0.2004	1.8715	0.1943	1.8905	0.1960	1.5107	0.1556	1.5317	0.1568	1.5635	0.1657
289.2370	1.9623	0.2004	1.8472	0.1943	1.8622	0.1961	1.5068	0.1556	1.5974	0.1569	1.5837	0.1657
289.2702	1.9322	0.2005	1.8587	0.1944	1.8698	0.1962	1.4976	0.1557	1.5176	0.1569	1.6253	0.1658
289.3035	1.9259	0.2006	1.8682	0.1945	1.8587	0.1962	1.4679	0.1557	1.5039	0.1570	1.6036	0.1659
289.3367	1.9125	0.2006	1.8593	0.1945	1.8727	0.1963	1.5154	0.1558	1.5252	0.1570	1.5618	0.1659
289.3694	1.9341	0.2007	1.8762	0.1946	1.8974	0.1963	1.4828	0.1558	1.5248	0.1570	1.6316	0.1660
289.4027	1.9043	0.2007	1.8784	0.1946	1.8590	0.1964	1.5077	0.1559	1.5185	0.1571	1.5992	0.1660
289.4359	1.9398	0.2008	1.8760	0.1947	1.9064	0.1965	1.5107	0.1559	1.5504	0.1572	1.5550	0.1661
289.4692	1.9361	0.2009	1.8841	0.1948	1.8714	0.1965	1.4565	0.1560	1.5307	0.1572	1.5609	0.1661
289.5019	1.9490	0.2009	1.8463	0.1948	1.8918	0.1966	1.4778	0.1560	1.4915	0.1573	1.6202	0.1662
289.5352	1.9466	0.2010	1.8729	0.1949	1.8810	0.1967	1.4969	0.1560	1.5277	0.1573	1.5766	0.1662
289.5684	1.9164	0.2011	1.8622	0.1949	1.8840	0.1967	1.4744	0.1561	1.5392	0.1574	1.6135	0.1663
289.6016	1.9220	0.2011	1.8591	0.1950	1.9041	0.1968	1.5235	0.1562	1.4886	0.1574	1.6485	0.1663
289.6343	1.9026	0.2012	1.8784	0.1951	1.8773	0.1968	1.5217	0.1562	1.5449	0.1575	1.5632	0.1664
289.6676	1.9148	0.2012	1.8853	0.1951	1.8921	0.1969	1.4649	0.1562	1.5545	0.1575	1.5568	0.1664
289.7008	1.9300	0.2013	1.8780	0.1952	1.9173	0.1970	1.4811	0.1563	1.4788	0.1576	1.5857	0.1665
289.7340	1.8991	0.2014	1.8840	0.1953	1.8791	0.1970	1.4810	0.1563	1.4826	0.1576	1.5961	0.1665
289.7667	1.8969	0.2014	1.8557	0.1953	1.8726	0.1971	1.5041	0.1564	1.5188	0.1577	1.5761	0.1666
289.8000	1.9644	0.2015	1.8810	0.1954	1.8642	0.1971	1.4978	0.1565	1.4911	0.1577	1.6229	0.1666
289.8333	1.9291	0.2015	1.8270	0.1954	1.8708	0.1972	1.5043	0.1565	1.5174	0.1578	1.6299	0.1667
289.8660	1.9224	0.2016	1.8789	0.1955	1.8689	0.1973	1.4708	0.1565	1.5624	0.1578	1.5533	0.1667
289.8992	1.9204	0.2017	1.8605	0.1956	1.8843	0.1973	1.4867	0.1566	1.4715	0.1578	1.5888	0.1668
289.9324	1.9057	0.2017	1.8767	0.1956	1.9210	0.1974	1.5082	0.1566	1.5011	0.1579	1.6032	0.1668
289.9657	1.9316	0.2018	1.8901	0.1957	1.8754	0.1975	1.4652	0.1567	1.5045	0.1580	1.5826	0.1669
289.9989	1.9155	0.2019	1.8660	0.1958	1.8692	0.1975	1.5252	0.1567	1.5225	0.1580	1.5899	0.1669
290.0316	1.9076	0.2019	1.8503	0.1958	1.8832	0.1976	1.5027	0.1568	1.4994	0.1580	1.6147	0.1670
290.0649	1.9805	0.2020	1.8754	0.1959	1.8791	0.1977	1.4795	0.1568	1.5403	0.1581	1.5936	0.1671
290.0981	1.9341	0.2021	1.8333	0.1959	1.8534	0.1977	1.4786	0.1569	1.5385	0.1581	1.5405	0.1671
290.1313	1.9256	0.2021	1.8245	0.1960	1.8978	0.1978	1.5056	0.1569	1.4828	0.1582	1.5737	0.1671
290.1640	1.9372	0.2022	1.8607	0.1961	1.9154	0.1978	1.4878	0.1570	1.4965	0.1582	1.5947	0.1672
290.1973	1.8812	0.2023	1.8419	0.1961	1.8751	0.1979	1.5386	0.1570	1.5330	0.1583	1.5819	0.1673
290.2306	1.9248	0.2023	1.9038	0.1962	1.8577	0.1979	1.5212	0.1571	1.5061	0.1583	1.5775	0.1673
290.2638	1.9099	0.2024	1.8620	0.1963	1.8623	0.1980	1.4509	0.1571	1.5239	0.1584	1.5866	0.1674
290.2966	1.8769	0.2024	1.8554	0.1963	1.8687	0.1981	1.4936	0.1572	1.5529	0.1584	1.5439	0.1674
290.3298	1.9446	0.2025	1.8463	0.1964	1.8690	0.1981	1.4965	0.1572	1.4856	0.1585	1.5665	0.1675
290.3631	1.9291	0.2026	1.8357	0.1964	1.8502	0.1982	1.5162	0.1573	1.4705	0.1585	1.6144	0.1675
290.3958	1.9164	0.2026	1.8526	0.1965	1.9074	0.1983	1.5395	0.1573	1.5262	0.1586	1.5722	0.1676
290.4290	1.9035	0.2027	1.8714	0.1965	1.8720	0.1983	1.4930	0.1574	1.5039	0.1586	1.5798	0.1676
290.4623	1.9026	0.2028	1.8870	0.1966	1.8607	0.1984	1.4609	0.1574	1.5238	0.1587	1.5976	0.1677
290.4951	1.9307	0.2028	1.9009	0.1967	1.8744	0.1984	1.5041	0.1575	1.5309	0.1588	1.5923	0.1677
290.5284	1.9330	0.2029	1.8436	0.1967	1.8617	0.1985	1.5221	0.1575	1.4929	0.1588	1.5512	0.1678
290.5616	1.9030	0.2029	1.8424	0.1968	1.8681	0.1986	1.4758	0.1576	1.4935	0.1588	1.5811	0.1678
290.5948	1.9493	0.2030	1.8624	0.1969	1.9032	0.1986	1.5341	0.1576	1.4992	0.1589	1.6299	0.1679
290.6276	1.9070	0.2031	1.8208	0.1969	1.8726	0.1987	1.4838	0.1577	1.5127	0.1590	1.5718	0.1679
290.6608	1.9253	0.2031	1.8472	0.1970	1.9193	0.1988	1.4681	0.1577	1.5160	0.1590	1.5806	0.1680
290.6940	1.8896	0.2032	1.8460	0.1970	1.8745	0.1988	1.4930	0.1578	1.5618	0.1590	1.6604	0.1680
290.7273	1.8797	0.2032	1.8726	0.1971	1.8530	0.1989	1.4995	0.1578	1.4887	0.1591	1.5581	0.1681
290.7605	1.9235	0.2033	1.8601	0.1971	1.8534	0.1989	1.5151	0.1579	1.4771	0.1591	1.5760	0.1681
290.7932	1.9136	0.2034	1.8325	0.1972	1.8537	0.1990	1.5312	0.1579	1.5010	0.1592	1.5645	0.1682
290.8264	1.9160	0.2034	1.8435	0.1973	1.8567	0.1991	1.4890	0.1580	1.5348	0.1592	1.6075	0.1682
290.8596	1.9092	0.2035	1.8908	0.1973	1.8873	0.1991	1.4546	0.1580	1.5080	0.1593	1.5514	0.1683
290.8929	1.9002	0.2036	1.8432	0.1974	1.8919	0.1992	1.4813	0.1581	1.5231	0.1593	1.6140	0.1683
290.9256	1.9006	0.2036	1.8515	0.1975	1.8745	0.1992	1.4711	0.1581	1.5117	0.1594	1.5891	0.1684
290.9588	1.9263	0.2037	1.8659	0.1975	1.8720	0.1993	1.4905	0.1582	1.4675	0.1594	1.5411	0.1685
290.9921	1.8810	0.2037	1.8923	0.1976	1.8522	0.1994	1.5405	0.1582	1.4976	0.1595	1.5621	0.1685
291.0254	1.9108	0.2038	1.8391	0.1976	1.8872	0.1994	1.4646	0.1583	1.5080	0.1595	1.6021	0.1686
291.0581	1.9105	0.2039	1.8404	0.1977	1.8582	0.1995	1.4790	0.1583	1.5151	0.1596	1.5459	0.1686
291.0913	1.9098	0.2039	1.8306	0.1978	1.8841	0.1996	1.4917	0.1584	1.5197	0.1596	1.5783	0.1686
291.1245	1.9404	0.2040	1.8558	0.1978	1.9047	0.1996	1.4902	0.1584	1.5514	0.1597	1.6277	0.1687
291.1578	1.9179	0.2041	1.8325	0.1979	1.8831	0.1997	1.5091	0.1585	1.4954	0.1597	1.5876	0.1688
291.1905	1.9167	0.2041	1.8637	0.1979	1.8872	0.1998	1.5464	0.1585	1.4724	0.1598	1.5440	0.1688
291.2237	1.9062	0.2042	1.8348	0.1980	1.8506	0.1998	1.4559	0.1585	1.5259	0.1598	1.5764	0.1689
291.2569	1.8816	0.2043	1.8723	0.1981	1.8689	0.1999	1.4728	0.1586	1.5187	0.1599	1.6026	0.1689
291.2901	1.9096	0.2043	1.8701	0.1981	1.8549	0.1999	1.5082	0.1587	1.5041	0.1599	1.5796	0.1690
291.3234	1.9250	0.2044	1.8586	0.1982	1.8482	0.2000	1.4499	0.1587	1.5482	0.1600	1.5941	0.1690
291.3561	1.9097	0.2044	1.8396	0.1983	1.8840	0.2000	1.4700	0.1588	1.4932	0.1600	1.6345	0.1691
291.3893	1.9499	0.2045	1.8722	0.1983	1.8922	0.2001	1.5226	0.1588	1.4836	0.1601	1.5760	0.1691
291.4225	1.9312	0.2046	1.8396	0.1984	1.8424	0.2002	1.4669	0.1588	1.5310	0.1601	1.5680	0.1692
291.4558	1.9068	0.2046	1.8400	0.1984	1.8771	0.2002	1.4733	0.1589	1.4798	0.1602	1.5836	0.1692
291.4885	1.9247	0.2047	1.8956	0.1985	1.8423	0.2003	1.5141	0.1590	1.5036	0.1602	1.5944	0.1693
291.5217	1.9117	0.2048	1.8566	0.1986	1.8745	0.2004	1.4685	0.1590	1.5392	0.1603	1.5854	0.1693
291.5550	1.9127	0.2048	1.8736	0.1986	1.8868	0.2004	1.4788	0.1590	1.4915	0.1603	1.5841	0.1694
291.5883	1.9329	0.2049	1.8418	0.1987	1.8833	0.2005	1.5190	0.1591	1.4552	0.1604	1.6036	0.1694
291.6210	1.8982	0.2049	1.8339	0.1988	1.9155	0.2006	1.4541	0.1591	1.5126	0.1604	1.5354	0.1695
291.6542	1.9220	0.2050	1.8494	0.1988	1.8877	0.2006	1.4638	0.1592	1.5276	0.1605	1.5692	0.1696
291.6875	1.9418	0.2051	1.8350	0.1989	1.8578	0.2007	1.4933	0.1592	1.5127	0.1605	1.6037	0.1696
291.7207	1.8971	0.2051	1.8484	0.1989	1.8584	0.2007	1.4587	0.1593	1.5308	0.1606	1.5971	0.1696
291.7534	1.9197	0.2052	1.8665	0.1990	1.8831	0.2008	1.4731	0.1593	1.5315	0.1606	1.5910	0.1697
291.7866	1.8925	0.2052	1.8351	0.1990	1.8595	0.2008	1.5506	0.1594	1.4611	0.1607	1.6277	0.1698
291.8198	1.9099	0.2053	1.8873	0.1991	1.8666	0.2009	1.4503	0.1594	1.4878	0.1607	1.5475	0.1698
291.8531	1.8952	0.2054	1.8543	0.1992	1.8646	0.2010	1.4782	0.1595	1.5334	0.1608	1.5356	0.1699
291.8858	1.8690	0.2054	1.8598	0.1992	1.8858	0.2010	1.4927	0.1595	1.5187	0.1608	1.5887	0.1699
291.9190	1.9117	0.2055	1.8818	0.1993	1.8812	0.2011	1.4722	0.1596	1.5107	0.1609	1.5856	0.1700
291.9523	1.9440	0.2056	1.8751	0.1994	1.8590	0.2011	1.4911	0.1596	1.5275	0.1609	1.5771	0.1700
291.9855	1.9024	0.2056	1.8851	0.1994	1.8933	0.2012	1.5174	0.1597	1.4883	0.1610	1.6089	0.1701
292.0183	1.9284	0.2057	1.8889	0.1995	1.8629	0.2013	1.4523	0.1597	1.4856	0.1610	1.6339	0.1701
292.0515	1.9216	0.2058	1.8768	0.1995	1.8832	0.2014	1.4818	0.1598	1.5132	0.1610	1.5822	0.1702
292.0847	1.9220	0.2058	1.8824	0.1996	1.9025	0.2014	1.5354	0.1598	1.4982	0.1611	1.5657	0.1702
292.1180	1.9232	0.2059	1.8594	0.1997	1.9045	0.2015	1.4823	0.1599	1.5472	0.1611	1.6201	0.1703
292.1507	1.9419	0.2060	1.8752	0.1997	1.8788	0.2015	1.4940	0.1599	1.5526	0.1612	1.5688	0.1703
292.1840	1.9261	0.2060	1.8692	0.1998	1.8774	0.2016	1.5356	0.1600	1.4797	0.1613	1.5986	0.1704
292.2172	1.9592	0.2061	1.8436	0.1998	1.8476	0.2016	1.4690	0.1600	1.4828	0.1613	1.6220	0.1704
292.2504	1.9350	0.2061	1.8640	0.1999	1.8561	0.2017	1.4818	0.1601	1.5417	0.1614	1.5743	0.1705
292.2832	1.9151	0.2062	1.8772	0.2000	1.8427	0.2018	1.5122	0.1601	1.5030	0.1614	1.5599	0.1706
292.3164	1.9182	0.2063	1.8522	0.2000	1.8821	0.2018	1.4725	0.1602	1.5204	0.1615	1.5637	0.1706
292.3496	1.8998	0.2063	1.8748	0.2001	1.8897	0.2019	1.4976	0.1602	1.5489	0.1615	1.5919	0.1706
292.3825	1.9015	0.2064	1.8756	0.2002	1.8960	0.2019	1.5323	0.1603	1.5092	0.1616	1.5673	0.1707
292.4157	1.9059	0.2065	1.8662	0.2002	1.8806	0.2020	1.4541	0.1603	1.5157	0.1616	1.5936	0.1707
292.4489	1.9258	0.2065	1.8674	0.2003	1.8688	0.2021	1.4626	0.1603	1.4929	0.1617	1.6145	0.1708
292.4822	1.9361	0.2066	1.8760	0.2003	1.8924	0.2021	1.4951	0.1604	1.5261	0.1617	1.5857	0.1709
292.5149	1.9247	0.2066	1.8851	0.2004	1.8938	0.2022	1.4782	0.1605	1.5044	0.1618	1.5630	0.1709
292.5481	1.9147	0.2067	1.8886	0.2004	1.8840	0.2023	1.4971	0.1605	1.5359	0.1618	1.6011	0.1710
292.5813	1.9213	0.2068	1.8512	0.2005	1.9316	0.2023	1.5464	0.1605	1.5487	0.1619	1.6102	0.1710
292.6146	1.9372	0.2068	1.8526	0.2006	1.9195	0.2024	1.4940	0.1606	1.4919	0.1619	1.5962	0.1711
292.6473	1.9484	0.2069	1.8707	0.2006	1.8975	0.2025	1.4584	0.1606	1.5044	0.1620	1.5963	0.1711
292.6806	1.9400	0.2070	1.8624	0.2007	1.8681	0.2025	1.5162	0.1607	1.5204	0.1620	1.6242	0.1712
292.7138	1.9371	0.2070	1.8589	0.2008	1.8689	0.2026	1.4850	0.1608	1.5207	0.1620	1.5741	0.1712
292.7471	1.9439	0.2071	1.8475	0.2008	1.8648	0.2026	1.5108	0.1608	1.5384	0.1621	1.5800	0.1713
292.7798	1.9324	0.2072	1.8943	0.2009	1.8917	0.2027	1.5462	0.1608	1.5719	0.1621	1.6022	0.1713
292.8130	1.9566	0.2072	1.9069	0.2010	1.9068	0.2028	1.4924	0.1609	1.5207	0.1622	1.6071	0.1714
292.8462	1.9378	0.2073	1.8692	0.2010	1.8926	0.2028	1.4869	0.1610	1.5039	0.1623	1.5997	0.1714
292.8795	1.9389	0.2073	1.9033	0.2011	1.8872	0.2029	1.5237	0.1610	1.5436	0.1623	1.6371	0.1715
292.9122	1.9371	0.2074	1.8812	0.2011	1.8809	0.2029	1.5212	0.1610	1.5459	0.1624	1.6440	0.1715
292.9454	1.9090	0.2075	1.8610	0.2012	1.8796	0.2030	1.5007	0.1611	1.5412	0.1624	1.5880	0.1716
292.9787	1.9238	0.2075	1.8850	0.2013	1.8667	0.2031	1.5609	0.1611	1.5571	0.1625	1.5794	0.1716
293.0119	1.9362	0.2076	1.8923	0.2013	1.9033	0.2031	1.4781	0.1612	1.5789	0.1625	1.6227	0.1717
293.0446	1.9265	0.2077	1.8829	0.2014	1.8877	0.2032	1.4989	0.1613	1.4956	0.1626	1.6095	0.1717
293.0779	1.9592	0.2077	1.9038	0.2014	1.8933	0.2033	1.5115	0.1613	1.5168	0.1626	1.6006	0.1718
293.1111	1.9562	0.2078	1.9256	0.2015	1.9051	0.2033	1.4935	0.1613	1.5543	0.1627	1.6324	0.1719
293.1443	1.9070	0.2079	1.9247	0.2016	1.9450	0.2034	1.5083	0.1614	1.4963	0.1627	1.6268	0.1719
293.1771	1.9350	0.2079	1.8868	0.2016	1.8846	0.2034	1.5619	0.1615	1.5465	0.1628	1.5768	0.1719
293.2103	1.9252	0.2080	1.8668	0.2017	1.8854	0.2035	1.5030	0.1615	1.5711	0.1628	1.6016	0.1720
293.2435	1.9537	0.2081	1.8351	0.2018	1.8765	0.2036	1.4834	0.1615	1.4857	0.1628	1.6288	0.1721
293.2768	1.9275	0.2081	1.8764	0.2018	1.8975	0.2036	1.5117	0.1616	1.4838	0.1629	1.6059	0.1721
293.3095	1.9235	0.2082	1.9059	0.2019	1.8868	0.2037	1.4846	0.1616	1.5163	0.1630	1.5803	0.1722
293.3427	1.9625	0.2082	1.8752	0.2019	1.9070	0.2037	1.5152	0.1617	1.5180	0.1630	1.6380	0.1722
293.3759	1.9749	0.2083	1.8742	0.2020	1.9131	0.2038	1.5302	0.1617	1.5190	0.1631	1.5668	0.1723
293.4092	1.9851	0.2084	1.8914	0.2021	1.9237	0.2039	1.5112	0.1618	1.5631	0.1631	1.5597	0.1723
293.4419	1.9352	0.2084	1.9285	0.2021	1.8793	0.2039	1.5078	0.1618	1.5408	0.1632	1.5955	0.1724
293.4752	1.9287	0.2085	1.8896	0.2022	1.9078	0.2040	1.4966	0.1619	1.4877	0.1632	1.6262	0.1724
293.5085	1.9508	0.2086	1.8485	0.2023	1.9065	0.2041	1.5309	0.1619	1.5061	0.1633	1.5902	0.1725
293.5417	1.9450	0.2086	1.9024	0.2023	1.9052	0.2041	1.4850	0.1620	1.5531	0.1633	1.6117	0.1725
293.5745	1.9228	0.2087	1.9278	0.2024	1.8960	0.2042	1.5585	0.1620	1.5298	0.1634	1.6677	0.1726
293.6077	1.9409	0.2087	1.8825	0.2024	1.8838	0.2043	1.5221	0.1621	1.5527	0.1634	1.6199	0.1726
293.6409	1.9595	0.2088	1.8872	0.2025	1.9286	0.2043	1.4927	0.1621	1.5705	0.1635	1.5718	0.1727
293.6737	1.9428	0.2089	1.8481	0.2026	1.9474	0.2044	1.5216	0.1622	1.4861	0.1635	1.5961	0.1727
293.7069	1.9653	0.2089	1.9081	0.2026	1.9139	0.2044	1.5306	0.1623	1.5141	0.1636	1.6333	0.1728
293.7401	1.9525	0.2090	1.9263	0.2027	1.8960	0.2045	1.5039	0.1623	1.5232	0.1636	1.6286	0.1729
293.7733	1.9229	0.2091	1.8922	0.2028	1.9123	0.2046	1.5039	0.1623	1.5200	0.1636	1.6052	0.1729
293.8061	1.9407	0.2091	1.8197	0.2028	1.8758	0.2046	1.5554	0.1624	1.5465	0.1637	1.6641	0.1729
293.8394	1.9214	0.2092	1.8700	0.2029	1.9000	0.2047	1.4725	0.1624	1.5813	0.1638	1.6141	0.1730
293.8726	1.9488	0.2093	1.9098	0.2029	1.9020	0.2047	1.5103	0.1625	1.5340	0.1638	1.5720	0.1731
293.9058	1.9691	0.2093	1.9067	0.2030	1.8907	0.2048	1.5171	0.1625	1.4927	0.1639	1.6098	0.1731
